time (s)	coil I (A)	last det (V)	int current (uC)
426074.771090	0.479561	217.187500	-194.140625
426074.773091	0.827486	217.187500	-194.140625
426074.775092	0.935162	217.187500	-194.140625
426074.777091	0.931940	10.251338	0.200438
426075.853122	0.604026	176.757812	114.843750
426075.857122	0.933296	176.757812	114.843750
426075.859122	0.930910	176.757812	114.843750
426075.861124	0.929431	10.223741	0.140145
426076.900026	0.298505	106.738281	-184.375000
426076.902027	0.664304	106.738281	-184.375000
426076.904029	0.922885	106.738281	-184.375000
426076.906028	0.934457	106.738281	-184.375000
426076.908028	0.932015	10.252162	0.120465
426077.950121	0.576622	154.882812	116.210937
426077.952124	0.888838	154.882812	116.210937
426077.954123	0.933264	154.882812	116.210937
426077.956123	0.930738	10.238115	0.097347
426078.998136	0.471986	194.140625	-182.128906
426079.000138	0.821757	194.140625	-182.128906
426079.002135	0.935887	194.140625	-182.128906
426079.004136	0.932678	10.259456	0.141206
426080.014659	0.599321	163.867187	124.218750
426080.018660	0.933090	163.867187	124.218750
426080.020666	0.930648	163.867187	124.218750
426080.022665	0.929263	10.221889	0.146206
426081.095195	0.457834	219.726562	-191.699219
426081.097198	0.810596	219.726562	-191.699219
426081.099197	0.936011	219.726562	-191.699219
426081.101197	0.932766	10.260422	0.151142
426082.113242	0.843028	140.722656	144.335937
426082.115249	0.934598	140.722656	144.335937
426082.117245	0.931479	10.246269	0.093269
426083.191801	0.356921	154.492187	-227.636719
426083.193804	0.719566	154.492187	-227.636719
426083.195806	0.932439	154.492187	-227.636719
426083.197807	0.932810	154.492187	-227.636719
426083.199807	0.930846	10.239304	0.140459
426084.175864	0.544108	149.023437	152.343750
426084.177867	0.870913	149.023437	152.343750
426084.179866	0.933342	149.023437	152.343750
426084.181866	0.930594	10.236529	0.129738
426085.191881	0.581909	66.894531	-432.617187
426085.193882	0.891512	66.894531	-432.617187
426085.195883	0.933260	66.894531	-432.617187
426085.199880	0.929232	10.221552	0.054836
426086.207911	0.620085	157.128906	85.839844
426086.209913	0.908091	157.128906	85.839844
426086.211913	0.933425	157.128906	85.839844
426086.215911	0.929706	10.226763	0.050378
426087.255949	0.525349	37.500000	-477.929687
426087.257949	0.859660	37.500000	-477.929687
426087.259948	0.934270	37.500000	-477.929687
426087.261949	0.931282	10.244097	0.039996
426088.304518	0.520639	190.332031	70.800781
426088.306520	0.856526	190.332031	70.800781
426088.308519	0.934182	190.332031	70.800781
426088.310520	0.931247	10.243716	0.108643
426089.320547	0.564336	42.187500	-445.312500
426089.322551	0.882288	42.187500	-445.312500
426089.324549	0.932992	42.187500	-445.312500
426089.326549	0.930451	10.234961	0.067543
426090.402608	0.693744	210.644531	43.554687
426090.404609	0.928565	210.644531	43.554687
426090.406610	0.932934	210.644531	43.554687
426090.408610	0.930869	10.239560	0.063778
426091.416658	0.372519	89.746094	-369.238281
426091.418662	0.734398	89.746094	-369.238281
426091.420661	0.933871	89.746094	-369.238281
426091.422661	0.932842	10.261264	0.126758
426092.466696	0.640353	197.460937	42.773437
426092.468697	0.914500	197.460937	42.773437
426092.470697	0.932204	197.460937	42.773437
426092.472698	0.929959	10.229546	0.042209
426093.548694	0.757590	99.218750	-354.394531
426093.550699	0.934411	99.218750	-354.394531
426093.552697	0.931994	10.251931	0.102991
426094.530737	0.578203	190.234375	63.867187
426094.532740	0.889584	190.234375	63.867187
426094.534740	0.933234	190.234375	63.867187
426094.538738	0.929264	10.221906	0.062590
426095.644701	0.552495	84.277344	-416.699219
426095.646705	0.876110	84.277344	-416.699219
426095.648704	0.934130	84.277344	-416.699219
426095.650703	0.931406	10.245471	0.064762
426096.660783	0.600360	156.054687	86.718750
426096.662782	0.899731	156.054687	86.718750
426096.664782	0.932924	156.054687	86.718750
426096.666782	0.930469	10.235164	0.053621
426097.708835	0.505018	49.707031	-463.867187
426097.712835	0.934211	49.707031	-463.867187
426097.714837	0.931188	49.707031	-463.867187
426097.716836	0.929590	10.225487	0.068308
426098.756882	0.410949	188.085937	78.906250
426098.758884	0.770154	188.085937	78.906250
426098.760885	0.935179	188.085937	78.906250
426098.762886	0.935265	10.287912	0.083489
426099.773403	0.540346	39.941406	-467.480469
426099.775403	0.869269	39.941406	-467.480469
426099.777405	0.934577	39.941406	-467.480469
426099.779404	0.931580	10.247376	0.062412
426100.887436	0.525535	176.562500	67.089844
426100.889438	0.859869	176.562500	67.089844
426100.891440	0.934755	176.562500	67.089844
426100.893439	0.931730	10.249025	0.051027
426101.869483	0.343389	33.593750	-407.031250
426101.871484	0.706507	33.593750	-407.031250
426101.873485	0.930002	33.593750	-407.031250
426101.875486	0.932115	33.593750	-407.031250
426101.877491	0.931977	10.251745	0.071646
426102.951515	0.471118	194.335937	49.023437
426102.953515	0.821254	194.335937	49.023437
426102.957514	0.933543	194.335937	49.023437
426102.959517	0.931815	10.249964	0.062536
426103.967549	0.511932	59.960937	-361.132812
426103.969553	0.850631	59.960937	-361.132812
426103.971552	0.934394	59.960937	-361.132812
426103.973550	0.931444	10.245878	0.106433
426105.049590	0.635147	182.910156	45.019531
426105.051592	0.912867	182.910156	45.019531
426105.053593	0.932465	182.910156	45.019531
426105.055592	0.930226	10.232488	0.044454
426106.065628	0.676733	104.394531	-352.929687
426106.067629	0.924305	104.394531	-352.929687
426106.069631	0.932006	104.394531	-352.929687
426106.071630	0.929939	10.229324	0.300002
426107.114191	0.673676	190.625000	45.410156
426107.116194	0.924130	190.625000	45.410156
426107.120192	0.930652	190.625000	45.410156
426107.124192	0.928282	10.211102	0.232283
426108.194283	0.450436	67.773437	-331.054687
426108.196285	0.804140	67.773437	-331.054687
426108.198285	0.934241	67.773437	-331.054687
426108.202284	0.929386	10.223245	0.066450
426109.210295	0.487823	169.921875	49.218750
426109.212297	0.833854	169.921875	49.218750
426109.214298	0.838078	169.921875	49.218750
426109.216297	0.933009	10.263098	0.030398
426110.262315	0.933394	88.378906	-334.765625
426110.266315	0.929876	10.228633	0.600329
426111.308369	0.651543	175.585937	46.875000
426111.310370	0.917854	175.585937	46.875000
426111.312370	0.932315	175.585937	46.875000
426111.316369	0.928596	10.214560	0.120665
426112.360430	0.933561	70.605469	-331.738281
426112.362430	0.930882	70.605469	-331.738281
426112.364431	0.929479	10.224273	0.093630
426113.406469	0.814759	169.140625	47.265625
426113.410468	0.932215	169.140625	47.265625
426113.412468	0.930616	10.236777	0.032694
426114.452515	0.366275	48.046875	-336.035156
426114.454518	0.728421	48.046875	-336.035156
426114.456518	0.932441	48.046875	-336.035156
426114.458517	0.931938	10.251321	0.069968
426115.502558	0.632859	190.722656	45.898437
426115.504562	0.912303	190.722656	45.898437
426115.506561	0.932753	190.722656	45.898437
426115.508561	0.930464	10.235103	0.052679
426116.517492	0.475851	35.839844	-367.773437
426116.519492	0.825131	35.839844	-367.773437
426116.521493	0.937505	35.839844	-367.773437
426116.523493	0.934433	10.278767	0.084807
426117.601587	0.903356	196.679687	55.371094
426117.603586	0.932804	196.679687	55.371094
426117.607585	0.929074	10.219814	0.067136
426118.582182	0.530356	55.761719	-430.468750
426118.584184	0.862652	55.761719	-430.468750
426118.586183	0.933579	55.761719	-430.468750
426118.588185	0.930765	10.238417	0.103073
426119.696271	0.523534	176.757812	77.832031
426119.698273	0.858483	176.757812	77.832031
426119.700272	0.934364	176.757812	77.832031
426119.702271	0.931331	10.244638	0.074547
426120.712349	0.572058	23.339844	-439.843750
426120.714354	0.886456	23.339844	-439.843750
426120.716351	0.893848	23.339844	-439.843750
426120.718354	0.930724	10.237965	0.048431
426121.760357	0.471209	167.089844	91.503906
426121.762359	0.821056	167.089844	91.503906
426121.764359	0.935417	167.089844	91.503906
426121.766359	0.932198	10.254174	0.091647
426122.808431	0.377534	81.542969	-452.148437
426122.810434	0.739067	81.542969	-452.148437
426122.812432	0.933019	81.542969	-452.148437
426122.814432	0.931768	10.249450	0.067392
426123.826438	0.773636	177.050781	85.839844
426123.828438	0.934449	177.050781	85.839844
426123.830441	0.931706	10.248768	0.083999
426124.939389	0.565600	81.933594	-374.902344
426124.943388	0.933338	81.933594	-374.902344
426124.945388	0.930744	81.933594	-374.902344
426124.947390	0.929255	10.221809	0.064675
426125.921966	0.484244	160.253906	70.214844
426125.923967	0.830889	160.253906	70.214844
426125.925970	0.934391	160.253906	70.214844
426125.927969	0.931238	10.243619	0.044582
426127.004034	0.613155	113.574219	-332.812500
426127.006035	0.904997	113.574219	-332.812500
426127.008036	0.932946	113.574219	-332.812500
426127.010036	0.930446	10.234907	0.120813
426128.018108	0.297284	182.324219	50.878906
426128.020110	0.662884	182.324219	50.878906
426128.022110	0.921207	182.324219	50.878906
426128.024111	0.932372	182.324219	50.878906
426128.026109	0.930212	10.232328	0.052923
426129.070147	0.882917	84.375000	-337.890625
426129.072149	0.933156	84.375000	-337.890625
426129.074148	0.930515	10.235669	0.116586
426130.148198	0.327769	187.109375	53.515625
426130.150199	0.691764	187.109375	53.515625
426130.152199	0.927530	187.109375	53.515625
426130.154200	0.932039	187.109375	53.515625
426130.156199	0.930029	10.230317	0.054688
426131.164278	0.381850	23.925781	-381.347656
426131.166278	0.743153	23.925781	-381.347656
426131.168278	0.933836	23.925781	-381.347656
426131.170279	0.932198	10.254183	0.057718
426132.248305	0.846587	188.769531	73.339844
426132.250307	0.933735	188.769531	73.339844
426132.252307	0.930799	10.238789	0.078664
426133.261277	0.350949	15.136719	-423.242187
426133.263287	0.713756	15.136719	-423.242187
426133.265284	0.933467	15.136719	-423.242187
426133.267285	0.935047	15.136719	-423.242187
426133.269283	0.932808	10.260882	0.047828
426134.313308	0.906112	180.664062	90.917969
426134.315311	0.932754	180.664062	90.917969
426134.317310	0.930404	10.234447	0.096665
426135.359865	0.614383	56.054687	-433.007812
426135.361867	0.905744	56.054687	-433.007812
426135.363866	0.933189	56.054687	-433.007812
426135.365867	0.930791	10.238701	0.060368
426136.407922	0.521694	150.195312	96.582031
426136.409923	0.856913	150.195312	96.582031
426136.411924	0.933492	150.195312	96.582031
426136.413925	0.930692	10.237610	0.053505
426137.490465	0.736794	72.851562	-387.207031
426137.492473	0.932877	72.851562	-387.207031
426137.496482	0.931550	10.247048	0.052027
426138.471415	0.359377	154.687500	84.472656
426138.473426	0.721634	154.687500	84.472656
426138.475431	0.932324	154.687500	84.472656
426138.477429	0.932267	10.254936	0.059342
426139.587455	0.704286	75.488281	-341.113281
426139.589457	0.930432	75.488281	-341.113281
426139.591457	0.933079	75.488281	-341.113281
426139.593457	0.930969	10.240659	0.382813
426140.569975	0.611885	162.402344	70.410156
426140.571977	0.904110	162.402344	70.410156
426140.573978	0.932356	162.402344	70.410156
426140.575978	0.930011	10.230122	0.042910
426141.650549	0.474867	113.867187	-329.882812
426141.652550	0.823881	113.867187	-329.882812
426141.654551	0.935329	113.867187	-329.882812
426141.656555	0.932032	10.252348	0.108243
426142.666621	0.522423	163.574219	60.839844
426142.668625	0.857687	163.574219	60.839844
426142.670624	0.934206	163.574219	60.839844
426142.672625	0.931209	10.243299	0.037192
426143.748724	0.656192	76.269531	-308.496094
426143.750726	0.919767	76.269531	-308.496094
426143.752726	0.933087	76.269531	-308.496094
426143.754725	0.930805	10.238851	0.186884
426144.764741	0.696428	175.000000	54.296875
426144.766744	0.928351	175.000000	54.296875
426144.768744	0.932130	175.000000	54.296875
426144.770743	0.930107	10.231176	0.039787
426145.813327	0.696172	85.253906	-312.304687
426145.815331	0.928550	85.253906	-312.304687
426145.817331	0.932331	85.253906	-312.304687
426145.819329	0.930247	10.232718	0.128187
426146.861405	0.608486	168.457031	53.613281
426146.863407	0.903135	168.457031	53.613281
426146.865408	0.932651	168.457031	53.613281
426146.867407	0.930364	10.234003	0.041197
426147.911441	0.849617	56.542969	-306.250000
426147.913443	0.933577	56.542969	-306.250000
426147.915443	0.930680	10.237477	0.099267
426148.959503	0.776483	179.492187	51.757812
426148.961506	0.934657	179.492187	51.757812
426148.963508	0.931808	10.249885	0.039269
426150.006080	0.417750	69.726562	-310.449219
426150.008080	0.776144	69.726562	-310.449219
426150.010080	0.935519	69.726562	-310.449219
426150.012081	0.932600	10.258596	0.087485
426151.057060	0.836459	169.042969	54.492187
426151.059061	0.934968	169.042969	54.492187
426151.061061	0.931819	10.250009	0.036885
426152.103113	0.396078	58.300781	-304.785156
426152.105115	0.756438	58.300781	-304.785156
426152.107114	0.934981	58.300781	-304.785156
426152.109115	0.932647	10.259119	0.082467
426153.153622	0.744020	165.429687	55.566406
426153.155625	0.933948	165.429687	55.566406
426153.157625	0.932348	10.255832	0.534949
426154.202173	0.739984	35.937500	-292.187500
426154.204175	0.932647	35.937500	-292.187500
426154.206174	0.931394	10.245329	0.078963
426155.216195	0.418414	176.464844	54.882812
426155.218196	0.776767	176.464844	54.882812
426155.220197	0.935542	176.464844	54.882812
426155.222196	0.932566	10.258224	0.048976
426156.300235	0.870997	69.335937	-298.828125
426156.302237	0.933743	69.335937	-298.828125
426156.304239	0.930889	10.239781	0.080727
426157.314811	0.682576	157.519531	61.328125
426157.316814	0.926062	157.519531	61.328125
426157.318813	0.932642	157.519531	61.328125
426157.320813	0.930482	10.235297	0.259464
426158.394925	0.461325	70.605469	-301.953125
426158.396925	0.813276	70.605469	-301.953125
426158.398925	0.935301	70.605469	-301.953125
426158.400927	0.932004	10.252047	0.084261
426159.376991	0.280277	181.152344	65.820312
426159.382992	0.932501	181.152344	65.820312
426159.384993	0.930291	181.152344	65.820312
426159.386993	0.928987	10.218857	0.065628
426160.491053	0.270500	77.441406	-318.750000
426160.493054	0.637363	77.441406	-318.750000
426160.495055	0.913569	77.441406	-318.750000
426160.497054	0.932521	77.441406	-318.750000
426160.499056	0.930294	10.233232	0.084865
426161.475080	0.455274	166.894531	80.566406
426161.479080	0.935332	166.894531	80.566406
426161.481082	0.935211	166.894531	80.566406
426161.483082	0.930400	10.234402	0.060892
426162.590090	0.616269	70.019531	-347.558594
426162.592093	0.906318	70.019531	-347.558594
426162.594095	0.932972	70.019531	-347.558594
426162.596091	0.930565	10.236210	0.067238
426163.572129	0.437509	150.878906	96.093750
426163.574131	0.793282	150.878906	96.093750
426163.576131	0.934458	150.878906	96.093750
426163.578132	0.931380	10.245178	0.072260
426164.656189	0.882914	75.097656	-398.242187
426164.658192	0.933018	75.097656	-398.242187
426164.660190	0.930519	10.235713	0.072859
426165.668715	0.329691	166.308594	100.683594
426165.672714	0.927958	166.308594	100.683594
426165.674716	0.932131	166.308594	100.683594
426165.676716	0.929996	10.229954	0.102995
426166.752751	0.812061	22.167969	-403.222656
426166.754752	0.933965	22.167969	-403.222656
426166.756751	0.930886	10.239746	0.039250
426167.799685	0.525363	165.136719	97.851562
426167.803685	0.933337	165.136719	97.851562
426167.805686	0.933206	165.136719	97.851562
426167.807687	0.928964	10.218601	0.075602
426168.815752	0.571576	14.062500	-394.433594
426168.817752	0.886139	14.062500	-394.433594
426168.819753	0.933278	14.062500	-394.433594
426168.821753	0.930606	10.236662	0.048769
426169.897741	0.653948	187.695312	73.925781
426169.899743	0.926846	187.695312	73.925781
426169.901744	0.932103	187.695312	73.925781
426169.903743	0.930055	10.230609	0.074998
426170.879776	0.505536	70.312500	-362.304687
426170.881777	0.846042	70.312500	-362.304687
426170.883778	0.933864	70.312500	-362.304687
426170.885777	0.930836	10.239197	0.109433
426171.996349	0.594896	167.773437	62.597656
426171.998352	0.933010	167.773437	62.597656
426172.000352	0.930544	10.235989	0.043319
426173.010421	0.633166	41.113281	-293.359375
426173.012421	0.912348	41.113281	-293.359375
426173.014420	0.932787	41.113281	-293.359375
426173.016422	0.930453	10.234987	0.098758
426174.058474	0.542002	158.691406	61.425781
426174.060475	0.869733	158.691406	61.425781
426174.062474	0.933638	158.691406	61.425781
426174.064475	0.930992	10.240907	0.036402
426175.106503	0.442772	131.542969	-304.589844
426175.108506	0.797673	131.542969	-304.589844
426175.110505	0.935296	131.542969	-304.589844
426175.114504	0.930478	10.235253	0.115238
426176.124556	0.832755	164.062500	72.656250
426176.126557	0.934253	164.062500	72.656250
426176.128559	0.931060	10.241660	0.049237
426177.205121	0.707082	139.257812	-335.253906
426177.209120	0.931692	139.257812	-335.253906
426177.211122	0.929736	139.257812	-335.253906
426177.213124	0.928424	10.212663	0.433749
426178.221130	0.741760	150.000000	92.480469
426178.223131	0.933459	150.000000	92.480469
426178.225133	0.932035	10.252384	0.526083
426179.301646	0.593745	84.179687	-360.937500
426179.303647	0.896799	84.179687	-360.937500
426179.305653	0.932703	84.179687	-360.937500
426179.307650	0.930313	10.233445	0.087746
426180.319712	0.914543	143.945312	106.347656
426180.321712	0.932966	143.945312	106.347656
426180.323714	0.930623	10.236849	0.102183
426181.397785	0.411723	44.433594	-382.031250
426181.399788	0.770646	44.433594	-382.031250
426181.401787	0.934811	44.433594	-382.031250
426181.403787	0.932003	10.252038	0.053311
426182.415834	1.318269	153.027344	110.449219
426182.417834	0.934151	153.027344	110.449219
426182.419835	0.930996	10.240960	0.089667
426183.463892	0.720753	46.777344	-405.761719
426183.465894	0.931738	46.777344	-405.761719
426183.467894	0.931846	10.250301	0.449150
426184.510844	0.430201	166.503906	101.757812
426184.512843	0.787121	166.503906	101.757812
426184.514845	0.935537	166.503906	101.757812
426184.516843	0.932632	10.258950	0.108326
426185.558866	0.326929	3.125000	-384.570312
426185.560868	0.690948	3.125000	-384.570312
426185.562869	0.927190	3.125000	-384.570312
426185.564868	0.932082	3.125000	-384.570312
426185.566867	0.929991	10.229899	0.042451
426186.641452	0.554292	160.742187	97.167969
426186.643453	0.876476	160.742187	97.167969
426186.645452	0.932766	160.742187	97.167969
426186.647452	0.930149	10.231637	0.061562
426187.624413	0.540428	35.644531	-391.406250
426187.626415	0.868596	35.644531	-391.406250
426187.628414	0.933265	35.644531	-391.406250
426187.630414	0.930526	10.235785	0.070396
426188.705388	0.474543	186.328125	82.714844
426188.709389	0.935037	186.328125	82.714844
426188.711391	0.931850	186.328125	82.714844
426188.713391	0.930076	10.230840	0.103108
426189.721964	0.609812	4.492187	-358.984375
426189.723966	0.903352	4.492187	-358.984375
426189.727968	0.930112	4.492187	-358.984375
426189.729968	0.928845	10.217299	0.063316
426190.801997	0.374540	183.496094	78.613281
426190.803999	0.736057	183.496094	78.613281
426190.805999	0.933205	183.496094	78.613281
426190.808001	0.932176	10.253935	0.095181
426191.818010	0.412304	-11.230469	-341.406250
426191.820010	0.771089	-11.230469	-341.406250
426191.822013	0.934894	-11.230469	-341.406250
426191.824010	0.932203	10.254236	0.062216
426192.900057	0.537857	180.175781	78.710937
426192.904057	0.933066	180.175781	78.710937
426192.906058	0.930286	180.175781	78.710937
426192.908059	0.928831	10.217138	0.081736
426193.882118	0.358529	46.972656	-363.671875
426193.884125	0.720867	46.972656	-363.671875
426193.886126	0.932050	46.972656	-363.671875
426193.888129	0.932226	10.254484	0.112011
426194.996221	0.356448	174.414062	80.566406
426194.998228	0.718946	174.414062	80.566406
426195.000232	0.933190	174.414062	80.566406
426195.002231	0.933657	10.270224	0.074755
426195.980295	0.546388	44.824219	-369.531250
426195.982296	0.871929	44.824219	-369.531250
426195.984297	0.932549	44.824219	-369.531250
426195.986297	0.929967	10.229634	0.094191
426197.094401	1.433727	167.187500	87.792969
426197.096403	0.871263	167.187500	87.792969
426197.098404	0.933004	167.187500	87.792969
426197.100403	0.930282	10.233099	0.071458
426198.078409	0.715632	37.792969	-378.417969
426198.080411	0.930824	37.792969	-378.417969
426198.082411	0.931373	37.792969	-378.417969
426198.084411	0.929493	10.224423	0.079537
426199.194999	0.934019	161.230469	96.972656
426199.197003	0.933955	10.273502	0.064811
426200.175056	0.627802	36.914062	-391.601562
426200.177057	0.910082	36.914062	-391.601562
426200.179056	0.932268	36.914062	-391.601562
426200.181058	0.929988	10.229864	0.074374
426201.257630	0.834610	169.921875	100.976562
426201.259631	0.934773	169.921875	100.976562
426201.261631	0.931646	10.248103	0.097413
426202.272165	0.618109	38.769531	-397.167969
426202.274169	0.906702	38.769531	-397.167969
426202.278165	0.930203	38.769531	-397.167969
426202.280168	0.928809	10.216899	0.073145
426203.352239	0.389138	148.242187	113.085937
426203.354240	0.749774	148.242187	113.085937
426203.356242	0.933063	148.242187	113.085937
426203.358239	0.931079	10.241873	0.070470
426204.400304	0.293726	10.058594	-366.503906
426204.402308	0.659421	10.058594	-366.503906
426204.404307	0.920160	10.058594	-366.503906
426204.406307	0.932352	10.058594	-366.503906
426204.408307	0.930142	10.231557	0.048242
426205.418361	0.701472	149.218750	113.378906
426205.420364	0.928711	149.218750	113.378906
426205.422363	0.931470	149.218750	113.378906
426205.424363	0.929505	10.224556	0.385431
426206.498437	0.477427	57.714844	-361.523437
426206.500439	0.826174	57.714844	-361.523437
426206.502439	0.937117	57.714844	-361.523437
426206.504440	0.934064	10.274708	0.062666
426207.514509	0.524507	137.011719	109.082031
426207.516511	0.858903	137.011719	109.082031
426207.518511	0.933798	137.011719	109.082031
426207.520512	0.930812	10.238931	0.051832
426208.598583	0.918269	85.156250	-329.882812
426208.600584	0.932244	85.156250	-329.882812
426208.602584	0.929954	10.229492	0.169695
426209.579085	0.557836	156.835937	93.945312
426209.583086	0.932901	156.835937	93.945312
426209.585087	0.930247	156.835937	93.945312
426209.587086	0.928781	10.216589	0.071203
426210.695135	0.872840	87.500000	-290.039062
426210.697135	0.933403	87.500000	-290.039062
426210.699136	0.930630	10.236928	0.085732
426211.677677	0.810473	155.273437	78.320312
426211.679679	0.934928	155.273437	78.320312
426211.681678	0.931696	10.248661	0.055182
426212.757742	0.586074	129.394531	-280.273437
426212.759745	0.893314	129.394531	-280.273437
426212.761743	0.932873	129.394531	-280.273437
426212.763743	0.930411	10.234517	0.120067
426213.805753	0.486702	153.320312	68.945312
426213.807756	0.832584	153.320312	68.945312
426213.809756	0.934638	153.320312	68.945312
426213.811755	0.931649	10.248138	0.030811
426214.853776	0.385721	10.644531	-261.425781
426214.855779	0.746611	10.644531	-261.425781
426214.857779	0.934867	10.644531	-261.425781
426214.859779	0.933159	10.264747	0.073503
426215.903799	0.647079	166.992187	69.238281
426215.905800	0.916374	166.992187	69.238281
426215.907800	0.932077	166.992187	69.238281
426215.909800	0.929955	10.229510	0.053455
426216.921842	0.927149	-8.496094	-293.359375
426216.923843	0.932588	-8.496094	-293.359375
426216.925844	0.930451	10.234961	0.308739
426217.999913	0.458499	180.664062	79.785156
426218.001914	0.810881	180.664062	79.785156
426218.003916	0.935858	180.664062	79.785156
426218.005916	0.932562	10.258180	0.083079
426218.984479	0.732784	54.687500	-363.378906
426218.986479	0.932063	54.687500	-363.378906
426218.990478	0.929157	10.220728	0.535143
426220.097087	0.464548	159.960937	104.199219
426220.099087	0.815694	159.960937	104.199219
426220.101089	0.935569	159.960937	104.199219
426220.103089	0.935465	10.290119	0.078676
426221.113080	0.496329	8.398437	-365.820312
426221.115080	0.839498	8.398437	-365.820312
426221.117081	0.933673	8.398437	-365.820312
426221.119085	0.930643	10.237079	0.054463
426222.161646	0.496302	156.933594	115.234375
426222.163648	0.510488	156.933594	115.234375
426222.165650	0.933724	156.933594	115.234375
426222.167648	0.930587	10.236458	0.099533
426223.211742	0.768470	24.804687	-365.332031
426223.213746	0.935101	24.804687	-365.332031
426223.215745	0.932410	10.256514	0.062909
426224.261793	0.923793	141.210937	120.800781
426224.265793	0.929963	141.210937	120.800781
426224.267796	0.928599	10.214585	0.248830
426225.308327	0.667986	65.820312	-360.839844
426225.310332	0.922310	65.820312	-360.839844
426225.312338	0.932055	65.820312	-360.839844
426225.314337	0.929897	10.228871	0.242547
426226.322379	0.346743	144.433594	116.503906
426226.324381	0.709584	144.433594	116.503906
426226.326389	0.931836	144.433594	116.503906
426226.328389	0.933611	10.269718	0.080270
426227.404453	0.482529	102.343750	-353.710937
426227.406456	0.829426	102.343750	-353.710937
426227.408456	0.933952	102.343750	-353.710937
426227.410455	0.930826	10.239090	0.087948
426228.422424	0.848827	135.644531	113.964844
426228.424426	0.933278	135.644531	113.964844
426228.426427	0.930368	10.234047	0.061434
426229.502440	0.633330	83.105469	-328.125000
426229.504441	0.912285	83.105469	-328.125000
426229.506441	0.932829	83.105469	-328.125000
426229.508441	0.930519	10.235713	0.097719
426230.520478	0.923544	137.402344	110.351562
426230.522481	0.932626	137.402344	110.351562
426230.524480	0.930445	10.234899	0.225050
426231.599074	0.538404	92.285156	-323.339844
426231.601076	0.867266	92.285156	-323.339844
426231.603077	0.932986	92.285156	-323.339844
426231.605076	0.930360	10.233959	0.090835
426232.585125	0.931556	147.656250	108.593750
426232.587128	0.931990	147.656250	108.593750
426232.589126	0.929984	10.229829	0.450445
426233.697167	0.709736	84.667969	-322.753906
426233.699169	0.929793	84.667969	-322.753906
426233.701169	0.931477	84.667969	-322.753906
426233.703168	0.929466	10.224131	0.082110
426234.679750	0.623673	154.980469	109.765625
426234.681752	0.908666	154.980469	109.765625
426234.683752	0.932454	154.980469	109.765625
426234.685752	0.930125	10.231380	0.081619
426235.794330	0.709548	63.281250	-323.535156
426235.796331	0.930469	63.281250	-323.535156
426235.798330	0.932213	63.281250	-323.535156
426235.800332	0.930258	10.232842	0.408201
426236.778919	0.910764	143.457031	117.089844
426236.782919	0.930969	143.457031	117.089844
426236.784922	0.929630	10.225930	0.085026
426237.856967	0.396448	84.765625	-350.000000
426237.858967	0.756589	84.765625	-350.000000
426237.860968	0.933373	84.765625	-350.000000
426237.862968	0.931199	10.243194	0.089703
426238.873062	0.449005	147.363281	121.679687
426238.875063	0.803321	147.363281	121.679687
426238.877063	0.937678	147.363281	121.679687
426238.879063	0.934776	10.282534	0.092164
426239.955097	0.573435	45.605469	-353.027344
426239.957098	0.886752	45.605469	-353.027344
426239.959098	0.932596	45.605469	-353.027344
426239.961099	0.930060	10.230662	0.066806
426240.971151	0.617461	155.664062	122.167969
426240.973151	0.906405	155.664062	122.167969
426240.975153	0.932474	155.664062	122.167969
426240.977152	0.930173	10.231903	0.112019
426242.053178	0.741225	-3.808594	-345.117187
426242.055180	0.933442	-3.808594	-345.117187
426242.057180	0.931943	10.251373	0.527167
426243.100113	0.446140	150.195312	120.996094
426243.102115	0.800537	150.195312	120.996094
426243.104115	0.935429	150.195312	120.996094
426243.106115	0.935333	10.288666	0.072808
426244.116235	0.503236	0.390625	-342.675781
426244.118236	0.844250	0.390625	-342.675781
426244.120237	0.933796	0.390625	-342.675781
426244.124233	0.929254	10.221791	0.056291
426245.198290	0.630356	166.406250	102.636719
426245.200291	0.911192	166.406250	102.636719
426245.204291	0.930211	166.406250	102.636719
426245.206293	0.929018	10.219204	0.074273
426246.183264	0.905122	58.886719	-333.300781
426246.185266	0.932148	58.886719	-333.300781
426246.187266	0.929899	10.228890	0.101488
426247.296210	0.765082	168.652344	84.375000
426247.298211	0.934319	168.652344	84.375000
426247.300211	0.931780	10.249583	0.058088
426248.281143	0.932940	84.765625	-292.187500
426248.283151	0.931302	10.244319	0.604508
426249.360090	0.676288	163.378906	75.097656
426249.362092	0.924387	163.378906	75.097656
426249.364092	0.932387	163.378906	75.097656
426249.366093	0.930235	10.232585	0.255090
426250.408196	0.590145	21.093750	-244.042969
426250.410197	0.895015	21.093750	-244.042969
426250.412198	0.932596	21.093750	-244.042969
426250.414197	0.930109	10.231202	0.085396
426251.456228	0.494380	143.066406	78.027344
426251.458231	0.838716	143.066406	78.027344
426251.460230	0.936655	143.066406	78.027344
426251.462229	0.933425	10.267680	0.028466
426252.506286	0.756846	75.585937	-248.339844
426252.508288	0.933285	75.585937	-248.339844
426252.510288	0.931086	10.241944	0.102568
426253.520341	0.444503	148.144531	84.375000
426253.522344	0.799261	148.144531	84.375000
426253.524343	0.935325	148.144531	84.375000
426253.526343	0.932140	10.253536	0.045541
426254.602398	0.573056	107.324219	-267.968750
426254.604398	0.886601	107.324219	-267.968750
426254.606399	0.932476	107.324219	-267.968750
426254.608400	0.930038	10.230423	0.103962
426255.618407	0.607686	132.519531	98.828125
426255.620409	0.902588	132.519531	98.828125
426255.622409	0.932429	132.519531	98.828125
426255.624411	0.930153	10.231681	0.033759
426256.698423	0.367084	98.242187	-287.597656
426256.700425	0.728883	98.242187	-287.597656
426256.702425	0.931723	98.242187	-287.597656
426256.704426	0.931232	10.243557	0.101257
426257.684427	0.869359	154.589844	107.910156
426257.686431	0.878714	154.589844	107.910156
426257.688431	0.929698	10.226683	0.088292
426258.796471	1.210846	79.687500	-304.882812
426258.798473	0.862998	79.687500	-304.882812
426258.800473	0.933571	79.687500	-304.882812
426258.802472	0.930762	10.238381	0.082980
426259.779023	0.445018	157.031250	115.722656
426259.781026	0.799585	157.031250	115.722656
426259.783026	0.935441	157.031250	115.722656
426259.785025	0.932139	10.253527	0.092352
426260.897075	0.934296	52.832031	-318.261719
426260.899074	0.931280	52.832031	-318.261719
426260.901075	0.929572	10.225292	0.756166
426261.877063	0.601975	149.121094	122.265625
426261.879066	0.899874	149.121094	122.265625
426261.881065	0.932029	149.121094	122.265625
426261.883064	0.929690	10.226595	0.096663
426262.957077	0.362529	63.964844	-337.304687
426262.961080	0.931915	63.964844	-337.304687
426262.963081	0.931827	63.964844	-337.304687
426262.965082	0.929986	10.229847	0.077544
426263.973137	0.409961	149.316406	125.878906
426263.975139	0.768798	149.316406	125.878906
426263.977141	0.933963	149.316406	125.878906
426263.979138	0.931352	10.244878	0.100180
426265.055215	0.542795	35.351562	-337.109375
426265.057216	0.869722	35.351562	-337.109375
426265.059215	0.932558	35.351562	-337.109375
426265.061216	0.929887	10.228757	0.058569
426266.071303	0.591052	147.265625	127.539062
426266.073304	0.895550	147.265625	127.539062
426266.077302	0.930404	147.265625	127.539062
426266.079304	0.929035	10.219380	0.100374
426267.151350	0.356664	-5.468750	-326.269531
426267.153359	0.718901	-5.468750	-326.269531
426267.155363	0.932055	-5.468750	-326.269531
426267.157364	0.932489	-5.468750	-326.269531
426267.159364	0.932405	10.256460	0.053034
426268.167426	0.406744	148.925781	127.539062
426268.169428	0.765882	148.925781	127.539062
426268.171428	0.933473	148.925781	127.539062
426268.175425	0.929158	10.220737	0.101952
426269.217470	0.671495	36.816406	-347.851562
426269.219472	0.923224	36.816406	-347.851562
426269.221472	0.932355	36.816406	-347.851562
426269.223472	0.930225	10.232479	0.259687
426270.267492	0.884989	149.902344	127.050781
426270.269494	0.932607	149.902344	127.050781
426270.271494	0.930017	10.230192	0.091660
426271.314075	0.574015	30.566406	-343.164062
426271.316077	0.886962	30.566406	-343.164062
426271.318078	0.932240	30.566406	-343.164062
426271.320079	0.929795	10.227747	0.070451
426272.362122	0.479235	137.597656	131.738281
426272.364124	0.827158	137.597656	131.738281
426272.366125	0.935324	137.597656	131.738281
426272.368127	0.932100	10.253101	0.081984
426273.410175	0.382678	21.679687	-337.207031
426273.412175	0.743645	21.679687	-337.207031
426273.414175	0.934118	21.679687	-337.207031
426273.416177	0.932486	10.257347	0.063788
426274.460180	0.640028	130.859375	133.496094
426274.462182	0.914099	130.859375	133.496094
426274.464181	0.932022	130.859375	133.496094
426274.466184	0.929876	10.228633	0.113470
426275.508197	0.541096	39.062500	-340.820312
426275.510198	0.868784	39.062500	-340.820312
426275.512200	0.932831	39.062500	-340.820312
426275.514199	0.930129	10.231424	0.060724
426276.525159	0.748071	153.710937	126.855469
426276.527162	0.933172	153.710937	126.855469
426276.529163	0.931319	10.244514	0.111620
426277.605714	0.606810	20.019531	-323.632812
426277.607716	0.901976	20.019531	-323.632812
426277.609717	0.932221	20.019531	-323.632812
426277.611717	0.929910	10.229014	0.063426
426278.619737	0.279603	134.960937	131.445312
426278.623737	0.915930	134.960937	131.445312
426278.625740	0.932089	134.960937	131.445312
426278.627740	0.929854	10.228394	0.092042
426279.703805	0.774484	54.492187	-325.097656
426279.705806	0.934630	54.492187	-325.097656
426279.707806	0.931719	10.248910	0.068869
426280.718413	0.560169	135.546875	128.417969
426280.720413	0.879577	135.546875	128.417969
426280.722413	0.932339	135.546875	128.417969
426280.724414	0.929826	10.228083	0.064153
426281.802993	0.934856	39.550781	-301.367187
426281.804994	0.931919	39.550781	-301.367187
426281.806994	0.930237	10.232603	0.071425
426282.783036	0.602339	139.648437	122.851562
426282.785037	0.900189	139.648437	122.851562
426282.787039	0.932250	139.648437	122.851562
426282.789038	0.932165	10.253819	0.101977
426283.895544	0.310546	82.519531	-293.359375
426283.897545	0.675165	82.519531	-293.359375
426283.899546	0.923621	82.519531	-293.359375
426283.901545	0.931626	82.519531	-293.359375
426283.903548	0.929682	10.226497	0.078774
426284.882125	0.893427	146.972656	113.085937
426284.884128	0.932256	146.972656	113.085937
426284.888127	0.928378	10.212158	0.072079
426285.993081	0.378864	53.125000	-261.718750
426285.995083	0.740121	53.125000	-261.718750
426285.997086	0.933524	53.125000	-261.718750
426285.999087	0.932126	10.253386	0.076449
426286.977114	0.561129	142.968750	104.785156
426286.979116	0.880180	142.968750	104.785156
426286.981116	0.932386	142.968750	104.785156
426286.983115	0.929860	10.228464	0.055277
426288.059121	0.679121	124.609375	-256.542969
426288.061123	0.924428	124.609375	-256.542969
426288.063124	0.931580	124.609375	-256.542969
426288.065124	0.929548	10.225025	0.325224
426289.073135	0.353057	146.972656	92.187500
426289.075168	0.715470	146.972656	92.187500
426289.077168	0.932066	146.972656	92.187500
426289.079169	0.932423	146.972656	92.187500
426289.081167	0.930479	10.235271	0.051831
426290.155216	0.490514	87.792969	-235.058594
426290.157216	0.835201	87.792969	-235.058594
426290.159217	0.933800	87.792969	-235.058594
426290.161217	0.930754	10.238293	0.097099
426291.171249	0.531515	158.105469	81.738281
426291.173250	0.862993	158.105469	81.738281
426291.175251	0.933135	158.105469	81.738281
426291.177250	0.930391	10.234296	0.058416
426292.219313	0.439152	108.593750	-239.453125
426292.223316	0.935247	108.593750	-239.453125
426292.225314	0.932010	108.593750	-239.453125
426292.227316	0.930377	10.234145	0.126765
426293.301369	0.567374	149.218750	83.593750
426293.303372	0.883557	149.218750	83.593750
426293.305371	0.932516	149.218750	83.593750
426293.307373	0.930067	10.230733	0.037802
426294.317380	0.600921	0.976562	-240.039062
426294.319381	0.899467	0.976562	-240.039062
426294.321380	0.932072	0.976562	-240.039062
426294.323379	0.929695	10.226647	0.076881
426295.397447	0.373282	156.250000	91.406250
426295.399449	0.734877	156.250000	91.406250
426295.401450	0.932712	156.250000	91.406250
426295.403449	0.931745	10.249193	0.057080
426296.383489	0.876045	46.191406	-283.398437
426296.385491	0.932410	46.191406	-283.398437
426296.387489	0.929818	10.227995	0.097438
426297.496036	0.633826	160.156250	105.859375
426297.498039	0.645708	160.156250	105.859375
426297.500040	0.931998	160.156250	105.859375
426297.502038	0.929734	10.227074	0.068973
426298.478589	0.545856	34.277344	-315.917969
426298.480592	0.871512	34.277344	-315.917969
426298.482592	0.932438	34.277344	-315.917969
426298.484593	0.929858	10.228437	0.076455
426299.592609	0.527471	144.335937	126.171875
426299.594612	0.860412	144.335937	126.171875
426299.598609	0.929987	144.335937	126.171875
426299.602609	0.927208	10.199289	0.061031
426300.575162	0.440768	24.414062	-332.617187
426300.579161	0.934151	24.414062	-332.617187
426300.581162	0.931073	24.414062	-332.617187
426300.583164	0.929407	10.223475	0.072538
426301.655682	0.285402	149.511719	131.445312
426301.657684	0.651215	149.511719	131.445312
426301.659683	0.917540	149.511719	131.445312
426301.661683	0.931991	149.511719	131.445312
426301.663683	0.929859	10.228447	0.087153
426302.671752	0.333257	35.156250	-336.425781
426302.673755	0.696764	35.156250	-336.425781
426302.675754	0.928260	35.156250	-336.425781
426302.677754	0.931831	35.156250	-336.425781
426302.679753	0.929906	10.228970	0.085016
426303.721785	0.599698	151.855469	134.863281
426303.723783	0.899076	151.855469	134.863281
426303.725783	0.932270	151.855469	134.863281
426303.727781	0.929910	10.229014	0.113745
426304.772343	0.897279	55.859375	-333.300781
426304.774345	0.932731	55.859375	-333.300781
426304.776345	0.930182	10.232000	0.093847
426305.818379	0.499679	141.113281	138.476562
426305.820383	0.841503	141.113281	138.476562
426305.822382	0.933017	141.113281	138.476562
426305.824380	0.930013	10.230148	0.082003
426306.900954	0.720290	19.335937	-308.496094
426306.902956	0.930851	19.335937	-308.496094
426306.904955	0.931176	10.242937	0.443959
426307.915881	1.260649	134.472656	139.648437
426307.917881	0.880206	134.472656	139.648437
426307.919882	0.932877	134.472656	139.648437
426307.921882	0.930290	10.233188	0.068055
426308.966827	0.910063	65.527344	-318.359375
426308.968829	0.932542	65.527344	-318.359375
426308.970831	0.930202	10.232222	0.093265
426310.012879	0.536323	124.316406	141.894531
426310.014880	0.866031	124.316406	141.894531
426310.016880	0.932906	124.316406	141.894531
426310.018881	0.930258	10.232842	0.054590
426311.062908	0.792683	53.906250	-313.964844
426311.064911	0.933773	53.906250	-313.964844
426311.066910	0.930741	10.238152	0.079965
426312.076937	0.476903	145.898437	137.597656
426312.078939	0.824841	145.898437	137.597656
426312.080939	0.933612	145.898437	137.597656
426312.082939	0.930461	10.235075	0.107994
426313.160999	0.901609	42.675781	-316.015625
426313.163001	0.932733	42.675781	-316.015625
426313.165002	0.930351	10.233861	0.065737
426314.173554	0.377428	142.675781	140.527344
426314.175557	0.738709	142.675781	140.527344
426314.177557	0.933503	142.675781	140.527344
426314.179558	0.932062	10.252685	0.109184
426315.255603	0.507504	11.035156	-312.792969
426315.257605	0.847217	11.035156	-312.792969
426315.259605	0.933258	11.035156	-312.792969
426315.261605	0.930279	10.233064	0.052686
426316.272133	0.637088	152.832031	137.695312
426316.274133	0.912926	152.832031	137.695312
426316.278133	0.929473	152.832031	137.695312
426316.280134	0.928149	10.209641	0.147202
426317.320664	0.629430	33.203125	-328.125000
426317.322671	0.910466	33.203125	-328.125000
426317.324669	0.931837	33.203125	-328.125000
426317.326670	0.929617	10.225788	0.069364
426318.401641	0.563638	143.554687	138.574219
426318.403642	0.881600	143.554687	138.574219
426318.405641	0.932517	143.554687	138.574219
426318.407642	0.929994	10.229935	0.066300
426319.417721	0.610398	-12.597656	-306.640625
426319.419724	0.903480	-12.597656	-306.640625
426319.421725	0.932293	-12.597656	-306.640625
426319.423724	0.929992	10.229918	0.051694
426320.500731	0.875808	142.187500	130.468750
426320.502733	0.933346	142.187500	130.468750
426320.504734	0.930656	10.237220	0.071184
426321.482771	0.730293	33.398437	-302.734375
426321.484772	0.932385	33.398437	-302.734375
426321.486773	0.931672	10.248396	0.505865
426322.596819	0.719257	154.785156	110.644531
426322.598824	0.931440	154.785156	110.644531
426322.600824	0.931557	154.785156	110.644531
426322.602829	0.929619	10.225815	0.437685
426323.581365	0.910778	25.292969	-265.820312
426323.583366	0.931619	25.292969	-265.820312
426323.585365	0.929496	10.224459	0.083866
426324.659874	0.482888	163.671875	94.042969
426324.661876	0.829820	163.671875	94.042969
426324.663876	0.935455	163.671875	94.042969
426324.665877	0.932247	10.254714	0.084849
426325.675957	0.531568	25.781250	-233.886719
426325.677959	0.862923	25.781250	-233.886719
426325.679961	0.932793	25.781250	-233.886719
426325.681959	0.930110	10.231212	0.099840
426326.756018	0.295348	157.910156	87.304687
426326.758019	0.309334	157.910156	87.304687
426326.760019	0.920105	157.910156	87.304687
426326.762019	0.931840	157.910156	87.304687
426326.764019	0.929701	10.226709	0.051954
426327.774030	0.698136	117.382812	-230.078125
426327.776034	0.927787	117.382812	-230.078125
426327.778033	0.931274	117.382812	-230.078125
426327.782031	0.927885	10.206735	0.123274
426328.820611	0.335876	159.375000	86.718750
426328.822614	0.699204	159.375000	86.718750
426328.824615	0.928490	159.375000	86.718750
426328.828613	0.929760	159.375000	86.718750
426328.830615	0.928389	10.212282	0.062008
426329.903142	0.552442	74.609375	-217.675781
426329.905144	0.875364	74.609375	-217.675781
426329.909142	0.929872	74.609375	-217.675781
426329.911144	0.928292	10.211209	0.075115
426330.919181	0.593135	137.695312	97.460937
426330.921181	0.896109	137.695312	97.460937
426330.923182	0.932203	137.695312	97.460937
426330.925183	0.929849	10.228340	0.038575
426332.005240	0.931479	87.207031	-224.804687
426332.007241	0.929518	10.224698	0.464027
426332.982218	0.348837	141.699219	105.273437
426332.984221	0.711471	141.699219	105.273437
426332.986222	0.931373	141.699219	105.273437
426332.988223	0.932859	141.699219	105.273437
426332.990220	0.930826	10.239081	0.072569
426334.096289	0.338816	58.398437	-230.078125
426334.098289	0.702101	58.398437	-230.078125
426334.100289	0.929256	58.398437	-230.078125
426334.102290	0.932188	58.398437	-230.078125
426334.104291	0.930129	10.231416	0.081420
426335.080304	0.518129	136.718750	115.332031
426335.082307	0.854454	136.718750	115.332031
426335.084307	0.933177	136.718750	115.332031
426335.086307	0.930273	10.233002	0.060319
426336.194322	0.499110	40.136719	-237.304687
426336.196324	0.841506	40.136719	-237.304687
426336.198324	0.933813	40.136719	-237.304687
426336.200323	0.930765	10.238417	0.077029
426337.178369	0.682508	132.519531	123.632812
426337.180374	0.924928	132.519531	123.632812
426337.182373	0.931314	132.519531	123.632812
426337.184372	0.929271	10.221977	0.281273
426338.258357	0.437502	141.210937	-268.554687
426338.260358	0.793101	141.210937	-268.554687
426338.262358	0.934618	141.210937	-268.554687
426338.264358	0.931535	10.246889	0.114773
426339.276376	0.825108	128.613281	129.589844
426339.278377	0.934011	128.613281	129.589844
426339.280378	0.930917	10.240083	0.050573
426340.356969	0.702040	118.457031	-271.093750
426340.358971	0.928928	118.457031	-271.093750
426340.360971	0.931710	118.457031	-271.093750
426340.362974	0.929714	10.226851	0.399710
426341.370992	0.380329	126.074219	134.179687
426341.372994	0.741449	126.074219	134.179687
426341.374994	0.933235	126.074219	134.179687
426341.376995	0.931691	10.248600	0.047938
426342.455552	0.898915	98.535156	-270.507812
426342.457556	0.932389	98.535156	-270.507812
426342.459554	0.930056	10.230618	0.085508
426343.436482	0.578420	136.328125	134.570312
426343.438484	0.889323	136.328125	134.570312
426343.440484	0.932618	136.328125	134.570312
426343.442486	0.930216	10.232373	0.095590
426344.550560	0.573812	74.609375	-266.796875
426344.552562	0.586088	74.609375	-266.796875
426344.554561	0.933479	74.609375	-266.796875
426344.556563	0.930823	10.239055	0.081495
426345.533139	0.492524	139.062500	133.984375
426345.535142	0.836719	139.062500	133.984375
426345.537142	0.934074	139.062500	133.984375
426345.539142	0.930946	10.240411	0.083288
426346.647173	0.477894	49.218750	-258.593750
426346.649175	0.826106	49.218750	-258.593750
426346.651175	0.935258	49.218750	-258.593750
426346.653175	0.932006	10.252065	0.072949
426347.631207	0.656560	138.964844	133.984375
426347.633208	0.918858	138.964844	133.984375
426347.635210	0.931637	138.964844	133.984375
426347.637210	0.929489	10.224379	0.072601
426348.712203	0.592622	136.230469	-274.023437
426348.714205	0.896028	136.230469	-274.023437
426348.716206	0.932612	136.230469	-274.023437
426348.718206	0.930157	10.231726	0.115699
426349.727180	0.444919	126.464844	133.886719
426349.729180	0.799485	126.464844	133.886719
426349.731183	0.935094	126.464844	133.886719
426349.733182	0.931846	10.250301	0.058574
426350.809245	0.573894	127.832031	-262.695312
426350.811247	0.887047	127.832031	-262.695312
426350.813246	0.932675	127.832031	-262.695312
426350.815246	0.930191	10.232099	0.106097
426351.824272	0.433946	123.535156	130.566406
426351.826274	0.790146	123.535156	130.566406
426351.828273	0.934917	123.535156	130.566406
426351.830274	0.931874	10.250611	0.047688
426352.906330	0.562196	108.203125	-247.851562
426352.908330	0.880841	108.203125	-247.851562
426352.910332	0.932491	108.203125	-247.851562
426352.912331	0.929855	10.228402	0.103402
