time (s)	coil I (A)	last det (V)	int current (uC)
430452.740109	0.549369	354.003906	38.085937
430452.742111	0.875281	354.003906	38.085937
430452.744110	0.935780	354.003906	38.085937
430452.746110	0.932831	10.261140	0.563356
430453.788182	0.457459	359.570312	-229.296875
430453.790183	0.811103	359.570312	-229.296875
430453.792182	0.938056	359.570312	-229.296875
430453.794183	0.937923	10.317159	0.654847
430454.836179	0.349740	332.910156	41.308594
430454.838189	0.713673	332.910156	41.308594
430454.840191	0.935663	332.910156	41.308594
430454.842191	0.937371	332.910156	41.308594
430454.844191	0.935383	10.289215	0.570964
430455.854246	0.760767	352.832031	-232.714844
430455.856248	0.936193	352.832031	-232.714844
430455.858248	0.933947	10.273414	0.673003
430456.934266	0.521572	348.046875	36.132812
430456.936267	0.858143	348.046875	36.132812
430456.938268	0.935901	348.046875	36.132812
430456.940267	0.932847	10.261316	0.619959
430457.948859	0.297823	323.437500	-258.496094
430457.950862	0.664277	323.437500	-258.496094
430457.952862	0.923878	323.437500	-258.496094
430457.954861	0.935760	323.437500	-258.496094
430457.956863	0.933370	10.267069	0.719531
430459.031380	0.514379	314.160156	50.292969
430459.033381	0.853042	314.160156	50.292969
430459.035381	0.935606	314.160156	50.292969
430459.039382	0.930928	10.240207	0.625467
430460.047417	0.555396	275.976562	-299.707031
430460.049420	0.878528	275.976562	-299.707031
430460.051421	0.883919	275.976562	-299.707031
430460.053421	0.932507	10.257577	0.712113
430461.129491	0.689068	310.644531	57.617187
430461.131494	0.928455	310.644531	57.617187
430461.133494	0.933997	310.644531	57.617187
430461.135494	0.931653	10.248183	0.772821
430462.148439	0.935903	259.667969	-313.281250
430462.150441	0.932903	259.667969	-313.281250
430462.152441	0.931271	10.243982	0.653382
430463.224974	0.386637	287.597656	73.046875
430463.226975	0.748401	287.597656	73.046875
430463.228976	0.936642	287.597656	73.046875
430463.230975	0.935196	10.287150	0.629319
430464.241557	0.527460	246.679687	-324.609375
430464.243559	0.861836	246.679687	-324.609375
430464.245559	0.935640	246.679687	-324.609375
430464.247558	0.932611	10.258720	0.625224
430465.322535	0.462017	266.601562	87.402344
430465.324537	0.815069	266.601562	87.402344
430465.326536	0.939137	266.601562	87.402344
430465.328537	0.936057	10.296624	0.599631
430466.339049	0.586838	226.074219	-345.898437
430466.341052	0.894782	226.074219	-345.898437
430466.343051	0.934764	226.074219	-345.898437
430466.345054	0.932049	10.252543	0.605595
430467.387063	0.488270	283.203125	84.277344
430467.389066	0.834926	283.203125	84.277344
430467.391064	0.936505	283.203125	84.277344
430467.393067	0.933357	10.266927	0.747093
430468.435119	0.393093	237.109375	-333.496094
430468.437119	0.754575	237.109375	-333.496094
430468.439121	0.937082	237.109375	-333.496094
430468.441122	0.935279	10.288073	0.568301
430469.486085	0.816790	289.550781	82.812500
430469.488087	0.936342	289.550781	82.812500
430469.490087	0.933156	10.264711	0.717526
430470.532127	0.364873	213.574219	-357.617187
430470.534129	0.727925	213.574219	-357.617187
430470.536128	0.934790	213.574219	-357.617187
430470.538128	0.934763	10.282392	0.584659
430471.582186	0.636824	280.175781	87.500000
430471.584186	0.914688	280.175781	87.500000
430471.586188	0.934293	280.175781	87.500000
430471.588188	0.931871	10.250576	0.699743
430472.597116	0.476257	265.039062	-286.914062
430472.599116	0.825939	265.039062	-286.914062
430472.601116	0.937483	265.039062	-286.914062
430472.603118	0.934474	10.279219	0.681692
430473.682099	0.936213	255.566406	96.191406
430473.684103	0.933699	255.566406	96.191406
430473.686102	0.931650	10.248148	0.694527
430474.694143	0.452694	257.714844	-305.957031
430474.696147	0.807078	257.714844	-305.957031
430474.698146	0.938065	257.714844	-305.957031
430474.700144	0.935057	10.285626	0.699837
430475.775076	0.376558	255.859375	92.773437
430475.777078	0.738889	255.859375	92.773437
430475.779077	0.936229	255.859375	92.773437
430475.781078	0.935457	10.290030	0.638981
430476.791106	0.416633	226.562500	-343.359375
430476.795106	0.936672	226.562500	-343.359375
430476.797107	0.934142	226.562500	-343.359375
430476.799109	0.932155	10.253704	0.648033
430477.873165	0.547554	273.242187	79.687500
430477.875166	0.874089	273.242187	79.687500
430477.877166	0.935489	273.242187	79.687500
430477.879166	0.932486	10.257347	0.636386
430478.889700	0.679437	242.285156	-327.734375
430478.891702	0.926519	242.285156	-327.734375
430478.893703	0.934129	242.285156	-327.734375
430478.895703	0.931791	10.249699	0.641873
430479.974246	0.935814	278.515625	71.777344
430479.976248	0.932845	278.515625	71.777344
430479.978249	0.931255	10.243805	0.588108
430480.952787	0.445054	295.996094	-279.199219
430480.954787	0.800466	295.996094	-279.199219
430480.956790	0.937377	295.996094	-279.199219
430480.958789	0.934404	10.278439	0.764178
430482.068848	0.793382	283.496094	62.207031
430482.070848	0.937203	283.496094	62.207031
430482.074847	0.932310	10.255414	0.554716
430483.049780	0.416123	330.078125	-250.292969
430483.051781	0.775170	330.078125	-250.292969
430483.053782	0.935377	330.078125	-250.292969
430483.055782	0.932439	10.256832	0.804040
430484.164757	0.572756	275.292969	59.082031
430484.166760	0.888039	275.292969	59.082031
430484.168758	0.935569	275.292969	59.082031
430484.170761	0.932845	10.261299	0.462409
430485.148777	0.748598	324.804687	-257.714844
430485.150780	0.934908	324.804687	-257.714844
430485.152779	0.933179	10.264968	1.059847
430486.228781	0.508413	304.980469	49.707031
430486.230783	0.849224	304.980469	49.707031
430486.232784	0.936218	304.980469	49.707031
430486.234784	0.933147	10.264623	0.574472
430487.245300	0.635107	351.562500	-237.011719
430487.247301	0.914078	351.562500	-237.011719
430487.249301	0.934256	351.562500	-237.011719
430487.251300	0.931800	10.249796	0.779608
430488.329355	0.937053	285.937500	54.980469
430488.331359	0.934914	285.937500	54.980469
430488.333361	0.932838	10.261220	0.906154
430489.374299	0.470233	314.453125	-251.074219
430489.376299	0.485214	314.453125	-251.074219
430489.380298	0.939514	314.453125	-251.074219
430489.382299	0.937832	10.316156	0.604877
430490.389270	0.313658	322.265625	48.046875
430490.391273	0.678989	322.265625	48.046875
430490.393274	0.925773	322.265625	48.046875
430490.395273	0.933377	322.265625	48.046875
430490.397274	0.931108	10.242184	0.699294
430491.473323	0.801662	312.011719	-249.023437
430491.475324	0.936333	312.011719	-249.023437
430491.477326	0.933099	10.264091	0.562581
430492.489821	0.887413	316.699219	52.343750
430492.491824	0.935007	316.699219	52.343750
430492.493824	0.932285	10.255139	0.631669
430493.569845	0.693777	265.722656	-258.886719
430493.571846	0.929210	265.722656	-258.886719
430493.573847	0.933711	265.722656	-258.886719
430493.575846	0.931564	10.247199	0.554496
430494.585891	0.736142	266.699219	64.550781
430494.589891	0.934782	266.699219	64.550781
430494.591893	0.932610	10.258712	0.581682
430495.633945	0.644195	342.480469	-234.277344
430495.635947	0.916976	342.480469	-234.277344
430495.637947	0.934211	342.480469	-234.277344
430495.641948	0.930515	10.235661	0.775131
430496.682005	0.550149	291.406250	61.425781
430496.684006	0.875659	291.406250	61.425781
430496.686006	0.935684	291.406250	61.425781
430496.688007	0.932819	10.261006	0.550955
430497.732010	0.802891	352.441406	-229.785156
430497.734010	0.936162	352.441406	-229.785156
430497.736011	0.932914	10.262053	0.743543
430498.778074	0.352102	249.609375	68.164062
430498.780080	0.715725	249.609375	68.164062
430498.782077	0.724887	249.609375	68.164062
430498.784079	0.936839	249.609375	68.164062
430498.786078	0.934878	10.283659	0.520308
430499.830108	0.907246	346.875000	-233.203125
430499.832112	0.933860	346.875000	-233.203125
430499.834110	0.931270	10.243974	0.677929
430500.875052	0.318528	253.515625	64.941406
430500.877056	0.683652	253.515625	64.941406
430500.879055	0.927560	253.515625	64.941406
430500.881055	0.934299	253.515625	64.941406
430500.883055	0.932016	10.252171	0.469892
430501.927102	0.895855	326.464844	-243.359375
430501.929104	0.934831	326.464844	-243.359375
430501.931104	0.932161	10.253766	0.594088
430502.973125	0.491151	256.835937	61.816406
430502.975125	0.836799	256.835937	61.816406
430502.977125	0.936126	256.835937	61.816406
430502.981124	0.931271	10.243982	0.457837
430503.989170	0.531024	330.859375	-245.410156
430503.991173	0.863612	330.859375	-245.410156
430503.993172	0.934867	330.859375	-245.410156
430503.995173	0.931922	10.251143	0.804554
430505.071253	0.668024	277.929687	56.054687
430505.073254	0.923984	277.929687	56.054687
430505.075255	0.934375	277.929687	56.054687
430505.077256	0.931958	10.251541	0.480125
430506.087805	0.795638	298.925781	-266.601562
430506.089807	0.935593	298.925781	-266.601562
430506.091807	0.932432	10.256753	0.736814
430507.167843	0.935082	253.320312	64.453125
430507.169845	0.882957	253.320312	64.453125
430507.171847	0.934980	253.320312	64.453125
430507.173844	0.932132	10.253456	0.506925
430508.185889	0.903283	235.058594	-299.414062
430508.187890	0.934251	235.058594	-299.414062
430508.191888	0.930338	10.233720	0.661498
430509.265956	0.739198	258.496094	70.312500
430509.267960	0.934582	258.496094	70.312500
430509.269960	0.933348	10.266829	0.487993
430510.247974	0.554353	302.539062	-275.390625
430510.249976	0.877633	302.539062	-275.390625
430510.251977	0.934888	302.539062	-275.390625
430510.253978	0.931947	10.251417	0.813999
430511.364954	0.931941	226.367187	86.718750
430511.366953	0.933993	226.367187	86.718750
430511.368956	0.931817	10.249990	0.691812
430512.344965	0.522588	262.304687	-310.253906
430512.346965	0.858495	262.304687	-310.253906
430512.348965	0.935544	262.304687	-310.253906
430512.350966	0.932486	10.257347	0.772674
430513.427013	0.650877	280.859375	77.050781
430513.429013	0.919082	280.859375	77.050781
430513.431014	0.934241	280.859375	77.050781
430513.433013	0.931783	10.249610	0.741357
430514.441526	0.415462	260.058594	-310.253906
430514.443529	0.774594	260.058594	-310.253906
430514.445529	0.936477	260.058594	-310.253906
430514.447531	0.933793	10.271721	0.746525
430515.525594	0.872491	264.550781	89.160156
430515.527598	0.934891	264.550781	89.160156
430515.529596	0.931972	10.251692	0.661231
430516.539607	0.582508	243.847656	-327.246094
430516.541605	0.892694	243.847656	-327.246094
430516.543605	0.935015	243.847656	-327.246094
430516.545604	0.934886	10.283748	0.727417
430517.622168	0.797709	216.210937	109.960937
430517.624170	0.935953	216.210937	109.960937
430517.626170	0.932798	10.260777	1.049059
430518.638164	0.826366	238.671875	-332.519531
430518.640167	0.936137	238.671875	-332.519531
430518.642166	0.932880	10.261681	0.677747
430519.716709	0.328798	208.789062	113.281250
430519.718712	0.693488	208.789062	113.281250
430519.720711	0.929089	208.789062	113.281250
430519.722714	0.933691	208.789062	113.281250
430519.724712	0.931515	10.246668	0.501563
430520.732715	0.366014	210.449219	-355.175781
430520.736716	0.933894	210.449219	-355.175781
430520.738717	0.933568	210.449219	-355.175781
430520.740719	0.931402	10.245418	0.648817
430521.814744	0.494203	212.011719	112.402344
430521.816752	0.839185	212.011719	112.402344
430521.818753	0.936593	212.011719	112.402344
430521.820753	0.933407	10.267476	0.426821
430522.830796	0.537989	202.929687	-358.593750
430522.832797	0.867968	202.929687	-358.593750
430522.834798	0.935071	202.929687	-358.593750
430522.836799	0.932125	10.253376	0.559373
430523.878795	0.433615	251.660156	97.949219
430523.880798	0.790476	251.660156	97.949219
430523.882798	0.936754	251.660156	97.949219
430523.884799	0.933694	10.270632	0.792055
430524.928883	0.704505	156.542969	-370.117187
430524.930884	0.930713	156.542969	-370.117187
430524.932884	0.933338	156.542969	-370.117187
430524.934884	0.931252	10.243770	0.477802
430525.976957	0.615243	253.613281	93.652344
430525.978961	0.906772	253.613281	93.652344
430525.980959	0.934295	253.613281	93.652344
430525.982966	0.931869	10.250558	0.723159
430526.995002	0.920694	226.269531	-339.257812
430526.997004	0.934079	226.269531	-339.257812
430526.999003	0.931692	10.248608	0.826414
430528.073000	0.413898	266.406250	82.910156
430528.075003	0.773371	266.406250	82.910156
430528.077002	0.937068	266.406250	82.910156
430528.079003	0.934548	10.280025	0.720925
430529.089594	0.555793	233.105469	-327.148437
430529.091596	0.878478	233.105469	-327.148437
430529.093596	0.934987	233.105469	-327.148437
430529.095598	0.932151	10.253660	0.718336
430530.169656	0.322327	254.394531	78.808594
430530.171657	0.687196	254.394531	78.808594
430530.173658	0.928571	254.394531	78.808594
430530.175657	0.934570	254.394531	78.808594
430530.177658	0.932318	10.255503	0.666809
430531.187703	0.727962	243.457031	-311.523437
430531.189703	0.933553	243.457031	-311.523437
430531.191703	0.933252	10.265775	0.698468
430532.269789	0.846185	244.140625	73.437500
430532.271791	0.936118	244.140625	73.437500
430532.273789	0.933024	10.263267	0.524702
430533.283833	0.545456	255.859375	-291.796875
430533.285833	0.872523	255.859375	-291.796875
430533.287833	0.934806	255.859375	-291.796875
430533.289835	0.931964	10.251604	0.648096
430534.365853	0.666528	250.781250	66.113281
430534.367854	0.923299	250.781250	66.113281
430534.369854	0.933922	250.781250	66.113281
430534.371853	0.931511	10.246623	0.514615
430535.380405	0.441054	260.058594	-276.562500
430535.382408	0.796992	260.058594	-276.562500
430535.384407	0.936747	260.058594	-276.562500
430535.386408	0.933710	10.270808	0.624483
430536.430454	0.706894	275.097656	58.593750
430536.432458	0.930901	275.097656	58.593750
430536.434461	0.933199	275.097656	58.593750
430536.436461	0.931049	10.241536	0.686028
430537.480476	0.902286	243.066406	-269.531250
430537.482483	0.934542	243.066406	-269.531250
430537.484481	0.931903	10.250931	0.586760
430538.526538	0.514703	256.054687	61.425781
430538.528538	0.853395	256.054687	61.425781
430538.530539	0.935778	256.054687	61.425781
430538.532539	0.932734	10.260077	0.565695
430539.576554	0.772311	294.726562	-250.976562
430539.578555	0.936068	294.726562	-250.976562
430539.580556	0.933359	10.266945	0.595159
430540.623114	0.407896	241.601562	64.746094
430540.625117	0.767796	241.601562	64.746094
430540.627117	0.937134	241.601562	64.746094
430540.629116	0.937201	10.309209	0.429968
430541.673150	0.671562	268.652344	-254.589844
430541.675157	0.924374	268.652344	-254.589844
430541.677160	0.933624	268.652344	-254.589844
430541.679161	0.931344	10.244780	0.667574
430542.723162	0.885946	245.117187	66.601562
430542.725163	0.935062	245.117187	66.601562
430542.727163	0.932285	10.255139	0.336598
430543.770070	0.629446	284.179687	-250.781250
430543.772071	0.912194	284.179687	-250.781250
430543.774070	0.934621	284.179687	-250.781250
430543.776070	0.932066	10.252729	0.516812
430544.784573	0.392460	280.566406	63.964844
430544.788575	0.934800	280.566406	63.964844
430544.790575	0.932669	280.566406	63.964844
430544.792576	0.930813	10.238949	0.675594
430545.868615	0.857189	291.308594	-250.097656
430545.870617	0.935211	291.308594	-250.097656
430545.872617	0.932097	10.253066	0.458037
430546.882631	0.558336	261.230469	68.164062
430546.884633	0.879817	261.230469	68.164062
430546.886635	0.934576	261.230469	68.164062
430546.888635	0.931757	10.249326	0.588733
430547.964674	0.682090	243.164062	-258.984375
430547.966674	0.926954	243.164062	-258.984375
430547.968674	0.933822	243.164062	-258.984375
430547.970673	0.931672	10.248386	0.557137
430548.979251	0.462468	250.585937	68.066406
430548.981253	0.814741	250.585937	68.066406
430548.983254	0.936837	250.585937	68.066406
430548.985255	0.933666	10.270321	0.531006
430550.027292	0.363761	335.253906	-235.839844
430550.029295	0.726390	335.253906	-235.839844
430550.031294	0.933704	335.253906	-235.839844
430550.033294	0.933583	10.269408	0.722860
430551.077365	0.633360	244.726562	66.601562
430551.079368	0.913504	244.726562	66.601562
430551.081368	0.915496	244.726562	66.601562
430551.083367	0.931937	10.251302	0.492999
430552.125385	0.535962	279.394531	-253.027344
430552.127387	0.866855	279.394531	-253.027344
430552.129386	0.935062	279.394531	-253.027344
430552.131387	0.932100	10.253101	0.600611
430553.173397	0.431422	243.554687	64.257812
430553.175400	0.788643	243.554687	64.257812
430553.177401	0.936302	243.554687	64.257812
430553.179400	0.933332	10.266652	0.481035
430554.221434	0.332820	219.042969	-266.406250
430554.223437	0.697063	219.042969	-266.406250
430554.225437	0.929247	219.042969	-266.406250
430554.227437	0.933142	219.042969	-266.406250
430554.229441	0.930988	10.240863	0.485453
430555.271449	0.595902	244.238281	64.257812
430555.273450	0.898669	244.238281	64.257812
430555.275450	0.934442	244.238281	64.257812
430555.277450	0.931889	10.250780	0.494075
430556.287506	0.640248	293.847656	-264.160156
430556.289506	0.915317	293.847656	-264.160156
430556.291508	0.933574	293.847656	-264.160156
430556.293507	0.931175	10.242928	0.824227
430557.369537	0.762826	263.085937	63.476562
430557.371537	0.935576	263.085937	63.476562
430557.373537	0.933106	10.264161	0.480759
430558.384066	0.534671	253.906250	-286.914062
430558.386068	0.865994	253.906250	-286.914062
430558.388068	0.934973	253.906250	-286.914062
430558.390069	0.934837	10.283207	0.695075
430559.466112	0.660934	255.664062	70.410156
430559.468112	0.921586	255.664062	70.410156
430559.470113	0.933588	255.664062	70.410156
430559.472116	0.931277	10.244044	0.462474
430560.480702	0.440706	201.562500	-315.625000
430560.482704	0.796694	201.562500	-315.625000
430560.484703	0.936902	201.562500	-315.625000
430560.486704	0.933836	10.272191	0.576050
430561.562764	0.571257	239.453125	82.324219
430561.564765	0.887001	239.453125	82.324219
430561.566766	0.935053	239.453125	82.324219
430561.568766	0.932257	10.254829	0.410123
430562.579688	0.770305	190.625000	-334.863281
430562.581691	0.935466	190.625000	-334.863281
430562.583689	0.932717	10.259890	0.479828
430563.659747	0.540947	212.402344	96.777344
430563.661747	0.869925	212.402344	96.777344
430563.665747	0.932053	212.402344	96.777344
430563.667747	0.930546	10.236006	0.357865
430564.675768	0.579068	134.570312	-356.347656
430564.677770	0.890770	134.570312	-356.347656
430564.683768	0.930443	134.570312	-356.347656
430564.685770	0.929531	10.224839	0.434723
430565.723824	0.485376	250.097656	93.554687
430565.725825	0.832065	250.097656	93.554687
430565.727825	0.935425	250.097656	93.554687
430565.729826	0.932227	10.254501	0.704838
430566.773862	0.747079	162.695312	-363.085937
430566.775865	0.935776	162.695312	-363.085937
430566.777864	0.934142	10.275567	0.760523
430567.820847	0.461994	226.855469	106.250000
430567.822847	0.814401	226.855469	106.250000
430567.824847	0.937253	226.855469	106.250000
430567.826847	0.934080	10.274876	0.605445
430568.836893	0.505570	224.121094	-341.601562
430568.838895	0.846688	224.121094	-341.601562
430568.840897	0.935242	224.121094	-341.601562
430568.842895	0.935033	10.285360	0.762788
430569.918972	0.638312	222.753906	110.839844
430569.920976	0.914805	222.753906	110.839844
430569.922972	0.933609	222.753906	110.839844
430569.924973	0.931218	10.243398	0.499774
430570.935523	0.770030	242.480469	-328.125000
430570.937525	0.935523	242.480469	-328.125000
430570.939524	0.932795	10.260750	0.685779
430572.018480	0.930555	194.238281	117.871094
430572.020482	0.933786	194.238281	117.871094
430572.022482	0.931581	10.247395	0.646682
430573.030505	0.378673	198.632812	-352.929687
430573.032508	0.740462	198.632812	-352.929687
430573.034508	0.934418	198.632812	-352.929687
430573.036508	0.933040	10.263444	0.613710
430574.114546	0.847847	208.203125	112.402344
430574.116549	0.935084	208.203125	112.402344
430574.118549	0.932095	10.253039	0.375937
430575.129090	0.639588	200.097656	-350.097656
430575.131091	0.914931	200.097656	-350.097656
430575.135090	0.931035	200.097656	-350.097656
430575.137092	0.929828	10.228109	0.520743
430576.210080	1.691233	214.941406	105.761719
430576.212081	0.887897	214.941406	105.761719
430576.214081	0.934678	214.941406	105.761719
430576.216082	0.931962	10.251577	0.328074
430577.228109	0.905297	182.910156	-349.121094
430577.230110	0.908564	182.910156	-349.121094
430577.232110	0.931796	10.249752	0.395569
430578.307027	0.536170	220.507812	97.558594
430578.309029	0.867202	220.507812	97.558594
430578.311029	0.935588	220.507812	97.558594
430578.313028	0.932588	10.258463	0.321288
430579.293081	0.931750	263.964844	-306.250000
430579.295083	0.932243	263.964844	-306.250000
430579.297084	0.930337	10.233702	0.796109
430580.371607	0.572177	269.726562	76.074219
430580.373610	0.886960	269.726562	76.074219
430580.375609	0.933934	269.726562	76.074219
430580.377609	0.931295	10.244240	0.651899
430581.386552	0.416003	250.781250	-302.343750
430581.388554	0.774741	250.781250	-302.343750
430581.390554	0.934892	250.781250	-302.343750
430581.392555	0.932156	10.253713	0.737983
430582.470577	0.869386	269.628906	68.457031
430582.472578	0.934491	269.628906	68.457031
430582.474579	0.931644	10.248086	0.545105
430583.483512	0.380808	275.683594	-280.273437
430583.485514	0.742423	275.683594	-280.273437
430583.487514	0.934820	275.683594	-280.273437
430583.489514	0.933512	10.268628	0.712379
430584.566064	0.599620	259.375000	66.601562
430584.568067	0.900085	259.375000	66.601562
430584.570067	0.933811	259.375000	66.601562
430584.572066	0.931356	10.244922	0.403167
430585.582065	0.635347	299.707031	-260.156250
430585.584068	0.913261	299.707031	-260.156250
430585.586067	0.933051	299.707031	-260.156250
430585.588068	0.930738	10.238115	0.693019
430586.662678	0.505225	221.679687	70.312500
430586.664681	0.846650	221.679687	70.312500
430586.666680	0.935455	221.679687	70.312500
430586.668681	0.932309	10.255397	0.281342
430587.678776	0.555658	273.828125	-257.421875
430587.680777	0.878118	273.828125	-257.421875
430587.684775	0.933877	273.828125	-257.421875
430587.686776	0.929848	10.228332	0.632116
430588.730818	0.935161	251.464844	66.503906
430588.732818	0.931892	10.250815	0.586171
430589.774839	0.357148	260.156250	-254.101562
430589.778849	0.932882	260.156250	-254.101562
430589.780851	0.933189	260.156250	-254.101562
430589.782851	0.931088	10.241970	0.635492
430590.824919	0.631474	238.378906	69.140625
430590.828918	0.934146	238.378906	69.140625
430590.830918	0.931575	238.378906	69.140625
430590.832921	0.930334	10.233676	0.438570
430591.872920	0.528109	312.402344	-239.355469
430591.874921	0.861555	312.402344	-239.355469
430591.876920	0.934452	312.402344	-239.355469
430591.880920	0.929985	10.229838	0.562938
430592.920966	0.431415	250.878906	68.164062
430592.922965	0.788697	250.878906	68.164062
430592.924965	0.936751	250.878906	68.164062
430592.926965	0.933805	10.271854	0.366381
430593.969914	0.499417	278.320312	-246.289062
430593.971916	0.842344	278.320312	-246.289062
430593.973912	0.935028	278.320312	-246.289062
430593.975915	0.931895	10.250851	0.496664
430595.018478	0.497843	213.476562	73.828125
430595.020480	0.841477	213.476562	73.828125
430595.022481	0.935617	213.476562	73.828125
430595.024479	0.932447	10.256912	0.294163
430596.066493	0.394506	279.589844	-246.484375
430596.068496	0.755364	279.589844	-246.484375
430596.070495	0.936029	279.589844	-246.484375
430596.072496	0.933984	10.273822	0.440606
430597.114469	0.282126	211.132812	73.437500
430597.116471	0.649132	211.132812	73.437500
430597.118472	0.918594	211.132812	73.437500
430597.122471	0.931970	211.132812	73.437500
430597.124472	0.930675	10.237424	0.252975
430598.166464	0.871295	243.261719	-253.515625
430598.168466	0.935063	243.261719	-253.515625
430598.170467	0.932021	10.252234	0.356479
430599.180502	0.583948	279.589844	62.109375
430599.182504	0.892824	279.589844	62.109375
430599.184505	0.933792	279.589844	62.109375
430599.186508	0.931206	10.243264	0.619188
430600.229044	0.578531	275.683594	-250.878906
430600.231048	0.889989	275.683594	-250.878906
430600.233047	0.933711	275.683594	-250.878906
430600.235048	0.931099	10.242085	0.703484
430601.279059	0.826056	287.500000	57.714844
430601.281061	0.935944	287.500000	57.714844
430601.283061	0.932621	10.258826	0.580955
430602.326007	0.544573	252.734375	-258.398437
430602.328009	0.871666	252.734375	-258.398437
430602.332007	0.931169	252.734375	-258.398437
430602.334010	0.929731	10.227037	0.563614
430603.378019	0.801088	251.074219	65.429687
430603.380018	0.932065	10.252720	0.618409
430604.426062	0.931019	160.839844	-276.757812
430604.428064	0.933390	160.839844	-276.757812
430604.430064	0.931290	10.244195	0.662175
430605.472118	0.613014	275.000000	61.914062
430605.474119	0.905519	275.000000	61.914062
430605.476119	0.933663	275.000000	61.914062
430605.478119	0.931199	10.243194	0.563614
430606.487097	0.464597	295.117187	-269.433594
430606.489101	0.816009	295.117187	-269.433594
430606.491100	0.935959	295.117187	-269.433594
430606.493099	0.932675	10.259429	0.840852
430607.573167	0.934073	269.531250	67.382812
430607.575170	0.933983	10.273812	0.543212
430608.584126	0.441754	250.390625	-296.484375
430608.586129	0.797134	250.390625	-296.484375
430608.588129	0.935599	250.390625	-296.484375
430608.590129	0.932323	10.255548	0.720930
430609.666148	0.563816	237.695312	82.519531
430609.668150	0.882673	237.695312	82.519531
430609.670151	0.934029	237.695312	82.519531
430609.672151	0.931300	10.244301	0.491639
430610.682218	0.611655	245.117187	-309.375000
430610.684221	0.904683	245.117187	-309.375000
430610.686220	0.933371	245.117187	-309.375000
430610.688220	0.930838	10.239223	0.618201
430611.765170	0.870094	209.960937	95.605469
430611.767171	0.934600	209.960937	95.605469
430611.769173	0.931735	10.249086	0.422460
430612.779177	0.576575	167.382812	-341.210937
430612.781180	0.889058	167.382812	-341.210937
430612.783180	0.933774	167.382812	-341.210937
430612.785181	0.931186	10.243043	0.500807
430613.859183	0.330309	205.859375	103.320312
430613.861185	0.694644	205.859375	103.320312
430613.863185	0.929806	205.859375	103.320312
430613.865184	0.934365	205.859375	103.320312
430613.867185	0.932103	10.253128	0.358551
430614.875216	0.373167	160.742187	-352.832031
430614.877218	0.735326	160.742187	-352.832031
430614.879217	0.934680	160.742187	-352.832031
430614.881218	0.933906	10.272963	0.438077
430615.957271	0.504739	192.187500	111.328125
430615.959273	0.846139	192.187500	111.328125
430615.961272	0.935093	192.187500	111.328125
430615.963272	0.931916	10.251072	0.278050
430616.973313	0.546377	140.917969	-359.863281
430616.975314	0.872907	140.917969	-359.863281
430616.977314	0.934400	140.917969	-359.863281
430616.979314	0.931491	10.246402	0.372628
430618.021337	0.447268	242.285156	103.125000
430618.023337	0.802099	242.285156	103.125000
430618.025339	0.936191	242.285156	103.125000
430618.027339	0.933011	10.263124	0.637711
430619.072284	0.853187	125.390625	-363.476562
430619.074286	0.934939	125.390625	-363.476562
430619.076286	0.931840	10.250238	0.313042
430620.122369	0.935803	204.492187	113.671875
430620.124372	0.932747	204.492187	113.671875
430620.126371	0.931166	10.242822	0.547063
430621.134415	0.468688	219.042969	-340.429687
430621.136416	0.819490	219.042969	-340.429687
430621.138416	0.937270	219.042969	-340.429687
430621.142414	0.932448	10.256930	0.729601
430622.216435	0.590411	213.183594	109.472656
430622.218438	0.896298	213.183594	109.472656
430622.220436	0.934603	213.183594	109.472656
430622.222437	0.932013	10.252145	0.457189
430623.234497	0.913265	216.992187	-338.476562
430623.236500	0.933720	216.992187	-338.476562
430623.238499	0.931304	10.244346	0.615461
430624.313063	0.496865	220.117187	103.515625
430624.317067	0.936066	220.117187	103.515625
430624.319065	0.932873	220.117187	103.515625
430624.321067	0.931224	10.243468	0.429426
430625.329630	0.633405	196.679687	-339.453125
430625.331640	0.912689	196.679687	-339.453125
430625.333642	0.933162	196.679687	-339.453125
430625.337640	0.929483	10.224317	0.534246
430626.412223	0.841887	213.183594	98.632812
430626.414226	0.935642	213.183594	98.632812
430626.416226	0.932507	10.257577	0.358111
430627.426795	0.635491	162.597656	-335.351562
430627.428797	0.913705	162.597656	-335.351562
430627.430796	0.933465	162.597656	-335.351562
430627.432798	0.933399	10.267387	0.421792
430628.506840	0.400740	213.867187	90.820312
430628.510841	0.935117	213.867187	90.820312
430628.512842	0.932781	213.867187	90.820312
430628.514843	0.930885	10.239738	0.303038
430629.523423	0.540904	123.242187	-319.238281
430629.525423	0.869600	123.242187	-319.238281
430629.527423	0.934468	123.242187	-319.238281
430629.529424	0.931486	10.246348	0.346685
430630.603438	0.294284	217.578125	81.835937
430630.605440	0.660405	217.578125	81.835937
430630.607440	0.921205	217.578125	81.835937
430630.609441	0.933171	217.578125	81.835937
430630.611440	0.930930	10.240233	0.264685
430631.621477	0.701231	96.582031	-299.023437
430631.623478	0.929657	96.582031	-299.023437
430631.625478	0.932676	96.582031	-299.023437
430631.629482	0.929431	10.223741	0.549680
430632.671545	0.903513	259.960937	67.382812
430632.673548	0.933380	259.960937	67.382812
430632.675547	0.930924	10.240163	0.519616
430633.718088	0.602016	117.480469	-282.226562
430633.720090	0.901072	117.480469	-282.226562
430633.722091	0.933919	117.480469	-282.226562
430633.724092	0.931375	10.245125	0.274188
430634.768141	0.849844	225.000000	70.410156
430634.770144	0.934513	225.000000	70.410156
430634.772143	0.931420	10.245622	0.391592
430635.782238	0.561332	282.617187	-257.226562
430635.784239	0.880806	282.617187	-257.226562
430635.786239	0.933399	282.617187	-257.226562
430635.788239	0.930762	10.238381	0.754062
430636.864287	0.687428	223.925781	70.019531
430636.866286	0.927818	223.925781	70.019531
430636.868286	0.933575	223.925781	70.019531
430636.870287	0.931308	10.244390	0.464357
430637.878842	0.462315	305.957031	-245.410156
430637.880841	0.814211	305.957031	-245.410156
430637.882841	0.935929	305.957031	-245.410156
430637.884841	0.932722	10.259943	0.736049
430638.960916	0.594263	196.972656	73.242187
430638.962919	0.897511	196.972656	73.242187
430638.964919	0.933644	196.972656	73.242187
430638.966917	0.931145	10.242599	0.187658
430639.978966	0.913966	286.523437	-246.386719
430639.980971	0.933135	286.523437	-246.386719
430639.982969	0.930833	10.239161	0.677116
430641.025025	0.543495	272.265625	64.355469
430641.027028	0.870957	272.265625	64.355469
430641.029029	0.874840	272.265625	64.355469
430641.033026	0.929811	10.227923	0.519002
430642.075004	0.793618	294.335937	-243.847656
430642.077007	0.935497	294.335937	-243.847656
430642.079006	0.932377	10.256142	0.600731
430643.123589	0.794945	233.984375	71.484375
430643.125590	0.935914	233.984375	71.484375
430643.127592	0.932720	10.259925	0.410458
430644.169606	0.335020	300.781250	-240.136719
430644.171608	0.699063	300.781250	-240.136719
430644.173608	0.929852	300.781250	-240.136719
430644.175608	0.933324	300.781250	-240.136719
430644.177609	0.931150	10.242653	0.563221
430645.219614	0.594606	222.753906	72.949219
430645.221615	0.897790	222.753906	72.949219
430645.223616	0.933803	222.753906	72.949219
430645.225616	0.931253	10.243778	0.336269
430646.267644	0.498453	256.933594	-247.558594
430646.269644	0.841496	256.933594	-247.558594
430646.271645	0.934853	256.933594	-247.558594
430646.273645	0.931678	10.248458	0.413170
430647.316599	0.566109	220.507812	73.339844
430647.318603	0.883673	220.507812	73.339844
430647.320602	0.933910	220.507812	73.339844
430647.322602	0.931163	10.242794	0.304546
430648.366654	0.821700	212.500000	-254.199219
430648.368655	0.826943	212.500000	-254.199219
430648.372654	0.930561	10.236175	0.320015
430649.415209	0.820185	216.210937	73.437500
430649.417211	0.935961	216.210937	73.437500
430649.419212	0.932736	10.260094	0.281890
430650.429236	0.508469	291.210937	-251.367187
430650.431236	0.848289	291.210937	-251.367187
430650.433236	0.933877	291.210937	-251.367187
430650.435236	0.930882	10.239702	0.704896
430651.511266	0.632312	221.289062	73.828125
430651.513267	0.912753	221.289062	73.828125
430651.515269	0.933756	221.289062	73.828125
430651.517267	0.931325	10.244576	0.268432
430652.525342	0.314788	238.378906	-270.507812
430652.527342	0.679470	238.378906	-270.507812
430652.529342	0.924991	238.378906	-270.507812
430652.531342	0.932186	238.378906	-270.507812
430652.533342	0.930051	10.230556	0.576579
430653.607342	0.438309	219.921875	78.027344
430653.609343	0.794397	219.921875	78.027344
430653.611343	0.936159	219.921875	78.027344
430653.613343	0.933200	10.265199	0.259265
430654.623888	0.569944	194.335937	-289.257812
430654.625890	0.885678	194.335937	-289.257812
430654.627890	0.933550	194.335937	-289.257812
430654.629892	0.930950	10.240446	0.412033
430655.705913	0.694828	213.671875	86.035156
430655.707914	0.929176	213.671875	86.035156
430655.709914	0.933440	213.671875	86.035156
430655.711914	0.933359	10.266945	0.248551
430656.720466	0.469620	142.480469	-311.132812
430656.722470	0.820429	142.480469	-311.132812
430656.724469	0.936843	142.480469	-311.132812
430656.726469	0.933717	10.270888	0.316459
430657.802512	0.594256	203.613281	95.800781
430657.804514	0.609295	203.613281	95.800781
430657.806519	0.933740	203.613281	95.800781
430657.808513	0.931179	10.242972	0.222678
430658.817081	0.370220	126.074219	-330.273437
430658.819081	0.732322	126.074219	-330.273437
430658.821080	0.934279	126.074219	-330.273437
430658.823081	0.933674	10.270418	0.250920
430659.865645	0.367562	230.371094	97.265625
430659.867646	0.729704	230.371094	97.265625
430659.869645	0.932526	230.371094	97.265625
430659.871645	0.931954	10.251497	0.570359
430660.881658	0.405498	214.941406	-331.738281
430660.883660	0.765163	214.941406	-331.738281
430660.885661	0.934215	214.941406	-331.738281
430660.887662	0.931656	10.248219	0.666715
430661.963685	0.530678	203.808594	110.253906
430661.965688	0.863302	203.808594	110.253906
430661.967687	0.934611	203.808594	110.253906
430661.969687	0.931739	10.249131	0.442384
430662.983727	0.933279	196.972656	-343.261719
430662.985731	0.930769	196.972656	-343.261719
430662.987729	0.929363	10.222997	0.577228
430664.061778	0.700437	188.378906	116.210937
430664.063781	0.929582	188.378906	116.210937
430664.065781	0.932762	188.378906	116.210937
430664.067781	0.930772	10.238487	0.591418
430665.077813	0.740222	162.011719	-353.027344
430665.079816	0.934083	162.011719	-353.027344
430665.081814	0.932803	10.260830	0.551537
430666.157859	0.505216	192.187500	116.699219
430666.159862	0.846281	192.187500	116.699219
430666.161861	0.934960	192.187500	116.699219
430666.163860	0.931775	10.249521	0.283985
430667.177904	0.933654	154.980469	-354.199219
430667.179908	0.930820	10.239019	0.425963
430668.255938	0.673115	186.523437	116.992187
430668.257940	0.924295	186.523437	116.992187
430668.259940	0.933262	186.523437	116.992187
430668.261939	0.930986	10.240845	0.237871
430669.270477	0.444239	127.148437	-354.785156
430669.272482	0.799510	127.148437	-354.785156
430669.274480	0.936841	127.148437	-354.785156
430669.276481	0.933774	10.271517	0.348883
430670.352506	0.567793	173.730469	114.550781
430670.354508	0.884866	173.730469	114.550781
430670.356508	0.934274	173.730469	114.550781
430670.358509	0.931492	10.246410	0.192368
430671.368576	0.613375	85.449219	-348.535156
430671.370580	0.905454	85.449219	-348.535156
430671.372578	0.933351	85.449219	-348.535156
430671.374578	0.930917	10.240083	0.258820
430672.416571	0.507674	212.792969	104.882812
430672.422573	0.931141	212.792969	104.882812
430672.426574	0.928590	212.792969	104.882812
430672.428575	0.927743	10.205174	0.584705
430673.432645	0.557233	243.261719	-317.480469
430673.434647	0.878450	243.261719	-317.480469
430673.436648	0.933164	243.261719	-317.480469
430673.438650	0.930596	10.236556	0.655533
430674.515596	0.833577	211.718750	98.046875
430674.519597	0.932458	211.718750	98.046875
430674.521599	0.930904	10.239941	0.483759
430675.529665	0.534162	170.703125	-322.558594
430675.531667	0.865153	170.703125	-322.558594
430675.533668	0.933662	170.703125	-322.558594
430675.535668	0.930896	10.239861	0.612505
430676.611716	0.308548	234.765625	83.496094
430676.613718	0.921243	234.765625	83.496094
430676.615718	0.932787	234.765625	83.496094
430676.617718	0.930619	10.236813	0.408791
430677.626219	0.425761	190.917969	-302.539062
430677.628221	0.442251	190.917969	-302.539062
430677.630220	0.936016	190.917969	-302.539062
430677.632220	0.933012	10.263133	0.514006
430678.708241	0.549226	216.113281	79.394531
430678.710243	0.874543	216.113281	79.394531
430678.712242	0.934548	216.113281	79.394531
430678.714243	0.931810	10.249911	0.288097
430679.724289	0.590927	187.500000	-286.230469
430679.732291	0.929354	187.500000	-286.230469
430679.734291	0.928389	187.500000	-286.230469
430679.736293	0.927492	10.202409	0.447421
430680.804283	0.346239	198.339844	77.148437
430680.806284	0.709711	198.339844	77.148437
430680.808285	0.931377	198.339844	77.148437
430680.812282	0.933103	198.339844	77.148437
430680.814283	0.929912	10.229032	0.225015
430681.822292	0.744513	212.890625	-270.019531
430681.824295	0.934399	212.890625	-270.019531
430681.826296	0.932812	10.260936	0.787370
430682.868826	0.375819	239.843750	68.652344
430682.870829	0.737631	239.843750	68.652344
430682.872829	0.934438	239.843750	68.652344
430682.876826	0.931303	10.244336	0.496685
430683.916901	0.281534	238.378906	-257.128906
430683.918904	0.648133	238.378906	-257.128906
430683.920903	0.917269	238.378906	-257.128906
430683.922903	0.932828	238.378906	-257.128906
430683.924903	0.930499	10.235493	0.399234
430684.967461	0.644489	219.628906	71.093750
430684.969463	0.916473	219.628906	71.093750
430684.971465	0.933319	219.628906	71.093750
430684.973463	0.930991	10.240898	0.404185
430686.015515	0.550565	162.597656	-254.882812
430686.017515	0.874953	162.597656	-254.882812
430686.019515	0.933719	162.597656	-254.882812
430686.021517	0.930968	10.240650	0.350745
430687.063517	0.447481	232.910156	69.335937
430687.065518	0.802273	232.910156	69.335937
430687.067519	0.807121	232.910156	69.335937
430687.069519	0.933883	10.272714	0.264257
430688.111549	0.347457	180.761719	-250.683594
430688.113553	0.710678	180.761719	-250.683594
430688.115555	0.931669	180.761719	-250.683594
430688.117559	0.933531	180.761719	-250.683594
430688.119557	0.931448	10.245923	0.331959
430689.161596	0.615045	212.792969	75.097656
430689.163599	0.906541	212.792969	75.097656
430689.165600	0.934256	212.792969	75.097656
430689.167598	0.931610	10.247713	0.188919
430690.209599	0.511328	119.433594	-250.878906
430690.211601	0.850657	119.433594	-250.878906
430690.215598	0.931864	119.433594	-250.878906
430690.217599	0.930288	10.233171	0.268808
430691.225622	0.549448	270.312500	66.406250
430691.227624	0.874336	270.312500	66.406250
430691.229623	0.933863	270.312500	66.406250
430691.231624	0.931063	10.241695	0.570306
430692.274547	0.612560	284.472656	-243.261719
430692.276546	0.904654	284.472656	-243.261719
430692.278548	0.932584	284.472656	-243.261719
430692.280547	0.930280	10.233082	0.667208
430693.322602	0.520422	233.300781	72.363281
430693.324604	0.856410	233.300781	72.363281
430693.326605	0.934484	233.300781	72.363281
430693.328603	0.931466	10.246127	0.462224
430694.370620	0.418609	226.074219	-249.511719
430694.372621	0.777044	226.074219	-249.511719
430694.374621	0.935755	226.074219	-249.511719
430694.378619	0.931108	10.242184	0.603484
430695.418659	0.316044	223.828125	73.437500
430695.420660	0.680845	223.828125	73.437500
430695.422660	0.925845	223.828125	73.437500
430695.424660	0.932922	223.828125	73.437500
430695.426662	0.930781	10.238594	0.463001
430696.468677	0.579808	275.000000	-245.800781
430696.470679	0.890588	275.000000	-245.800781
430696.472684	0.933547	275.000000	-245.800781
430696.474686	0.930993	10.240925	0.427042
430697.516709	0.483450	235.058594	70.605469
430697.520708	0.935225	235.058594	70.605469
430697.522712	0.931953	235.058594	70.605469
430697.524714	0.930318	10.233498	0.393402
430698.564752	0.384120	192.773437	-258.886719
430698.566754	0.745661	192.773437	-258.886719
430698.568754	0.935080	192.773437	-258.886719
430698.570754	0.933588	10.269470	0.332758
430699.614801	0.653512	238.769531	71.386719
430699.616805	0.919283	238.769531	71.386719
430699.618804	0.933357	238.769531	71.386719
430699.620803	0.931069	10.241758	0.390525
430700.661331	0.277733	83.398437	-269.824219
430700.663333	0.644461	83.398437	-269.824219
430700.665334	0.916430	83.398437	-269.824219
430700.667334	0.933330	83.398437	-269.824219
430700.669333	0.930941	10.240349	0.253738
430701.711393	0.553054	236.914062	75.097656
430701.713396	0.876549	236.914062	75.097656
430701.715396	0.934228	236.914062	75.097656
430701.719394	0.929996	10.229954	0.385154
430702.725948	0.322926	199.511719	-285.449219
430702.727949	0.687232	199.511719	-285.449219
430702.729950	0.928108	199.511719	-285.449219
430702.731949	0.934047	199.511719	-285.449219
430702.733950	0.931770	10.249468	0.597487
430703.811968	0.935175	233.300781	81.542969
430703.813969	0.932012	233.300781	81.542969
430703.815969	0.930344	10.233782	0.337993
430704.824890	0.649092	184.179687	-303.515625
430704.826892	0.917902	184.179687	-303.515625
430704.828893	0.933333	184.179687	-303.515625
430704.830892	0.930984	10.240828	0.501187
430705.904946	0.417292	210.449219	94.628906
430705.906947	0.775945	210.449219	94.628906
430705.908946	0.935979	210.449219	94.628906
430705.910947	0.933216	10.265376	0.291706
430706.920972	0.455332	167.382812	-321.875000
430706.922974	0.808441	167.382812	-321.875000
430706.924974	0.936076	167.382812	-321.875000
430706.926972	0.932884	10.261724	0.394223
430708.001541	0.311333	184.277344	105.957031
430708.003543	0.676458	184.277344	105.957031
430708.005543	0.925615	184.277344	105.957031
430708.007543	0.933819	184.277344	105.957031
430708.009542	0.931566	10.247226	0.244355
430709.017548	0.348276	107.421875	-336.718750
430709.019549	0.711449	107.421875	-336.718750
430709.021550	0.931619	107.421875	-336.718750
430709.023551	0.933185	107.421875	-336.718750
430709.025552	0.931106	10.242166	0.305593
430710.101564	0.822288	185.058594	111.914062
430710.103566	0.935507	185.058594	111.914062
430710.105566	0.932323	10.255557	0.183731
430711.118095	0.900339	62.011719	-342.382812
430711.120097	0.933261	62.011719	-342.382812
430711.122097	0.930805	10.238860	0.237831
430712.164144	0.506802	210.253906	112.207031
430712.166145	0.847299	210.253906	112.207031
430712.168146	0.851872	210.253906	112.207031
430712.170144	0.931088	10.241970	0.494715
430713.214196	0.771342	47.656250	-345.800781
430713.216196	0.935577	47.656250	-345.800781
430713.218195	0.932869	10.261556	0.743775
430714.260181	0.301112	216.308594	112.500000
430714.264180	0.922339	216.308594	112.500000
430714.266182	0.932577	216.308594	112.500000
430714.268182	0.930510	10.235607	0.442202
430715.280198	0.929219	163.476562	-350.195312
430715.282201	0.931992	163.476562	-350.195312
430715.284201	0.929971	10.229679	0.782311
430716.360236	0.819740	201.757812	115.625000
430716.362239	0.935853	201.757812	115.625000
430716.364238	0.932595	10.258543	0.328829
430717.374796	0.602663	167.089844	-347.558594
430717.376798	0.900701	167.089844	-347.558594
430717.378798	0.932883	167.089844	-347.558594
430717.380799	0.930464	10.235103	0.472783
430718.456843	1.882310	195.898437	114.257812
430718.458844	0.933521	195.898437	114.257812
430718.460843	0.932858	10.261441	0.632560
430719.471779	0.572285	176.074219	-341.894531
430719.475782	0.933394	176.074219	-341.894531
430719.477784	0.930764	176.074219	-341.894531
430719.479785	0.929342	10.222757	0.415867
430720.552309	0.428025	198.535156	108.886719
430720.554310	0.785464	198.535156	108.886719
430720.556310	0.936323	198.535156	108.886719
430720.558312	0.933427	10.267698	0.237362
430721.570310	0.814136	146.582031	-336.230469
430721.574311	0.931489	146.582031	-336.230469
430721.576318	0.929868	10.228544	0.309320
430722.650866	0.680967	175.292969	105.078125
430722.652868	0.925892	175.292969	105.078125
430722.654868	0.932819	175.292969	105.078125
430722.656867	0.930618	10.236794	0.217635
430723.664923	0.362699	65.429687	-318.945312
430723.666927	0.725208	65.429687	-318.945312
430723.668926	0.932614	65.429687	-318.945312
430723.670925	0.932420	10.256620	0.263831
430724.714997	0.633507	230.371094	88.085937
430724.716999	0.912522	230.371094	88.085937
430724.718999	0.932840	230.371094	88.085937
430724.720999	0.930500	10.235501	0.527397
430725.731052	0.678290	239.160156	-296.972656
430725.733054	0.924784	239.160156	-296.972656
430725.735053	0.932292	239.160156	-296.972656
430725.737054	0.930168	10.231850	0.772504
430726.811077	0.441003	243.457031	77.636719
430726.813080	0.796658	243.457031	77.636719
430726.815079	0.936215	243.457031	77.636719
430726.817079	0.933123	10.264357	0.468394
430727.829598	0.884728	239.843750	-280.273437
430727.831601	0.933007	239.843750	-280.273437
430727.833602	0.930457	10.235031	0.615179
430728.909645	0.698534	234.570312	75.000000
430728.911649	0.929357	234.570312	75.000000
430728.913648	0.932971	234.570312	75.000000
430728.915648	0.932867	10.261539	0.325493
430729.926184	0.819714	257.812500	-264.746094
430729.928186	0.935390	257.812500	-264.746094
430729.930185	0.932173	10.253900	0.587436
430731.004753	0.324552	195.019531	77.636719
430731.006755	0.688965	195.019531	77.636719
430731.008755	0.927963	195.019531	77.636719
430731.010754	0.933363	195.019531	77.636719
430731.012755	0.931199	10.243185	0.221772
430732.024764	0.932463	283.105469	-251.562500
430732.026766	0.932240	10.254643	0.807263
430733.104810	0.837340	175.585937	78.125000
430733.106813	0.934941	175.585937	78.125000
430733.108811	0.931804	10.249840	0.139525
430734.120867	0.867088	258.105469	-248.437500
430734.122870	0.934408	258.105469	-248.437500
430734.124868	0.931593	10.247519	0.475893
430735.167422	0.534134	217.968750	74.023437
430735.169424	0.865135	217.968750	74.023437
430735.171424	0.934060	217.968750	74.023437
430735.173425	0.931166	10.242822	0.406666
430736.215468	0.438933	274.902344	-243.847656
430736.217467	0.794645	274.902344	-243.847656
430736.219474	0.935542	274.902344	-243.847656
430736.221474	0.932321	10.255529	0.428435
430737.263446	0.327557	229.687500	71.777344
430737.265446	0.691735	229.687500	71.777344
430737.267448	0.930855	229.687500	71.777344
430737.269447	0.936559	229.687500	71.777344
430737.271446	0.934375	10.278120	0.329611
430738.314000	0.685846	210.156250	-246.289062
430738.316002	0.927252	210.156250	-246.289062
430738.318002	0.933151	210.156250	-246.289062
430738.320000	0.931052	10.241571	0.381534
430739.362057	0.594388	220.898437	73.730469
430739.364058	0.897597	220.898437	73.730469
430739.366058	0.933603	220.898437	73.730469
430739.368060	0.931083	10.241918	0.269351
430740.410595	0.587381	121.289062	-247.949219
430740.412599	0.894382	121.289062	-247.949219
430740.416599	0.931022	121.289062	-247.949219
430740.418601	0.929565	10.225212	0.311877
430741.460634	0.836694	205.371094	76.074219
430741.462635	0.935815	205.371094	76.074219
430741.464634	0.932664	10.259305	0.214182
430742.507116	0.474674	122.949219	-250.292969
430742.509118	0.488132	122.949219	-250.292969
430742.511118	0.936138	122.949219	-250.292969
430742.515116	0.931239	10.243628	0.227059
430743.557157	0.735602	205.957031	75.976562
430743.559159	0.933137	205.957031	75.976562
430743.561158	0.932045	10.252490	0.184758
430744.571711	0.508986	236.425781	-252.929687
430744.573712	0.848438	236.425781	-252.929687
430744.575712	0.933604	236.425781	-252.929687
430744.577711	0.930701	10.237708	0.586673
430745.655789	0.915690	207.519531	76.464844
430745.657789	0.933103	207.519531	76.464844
430745.659789	0.930761	10.238372	0.171358
430746.670750	0.836063	244.921875	-259.179687
430746.672751	0.935743	244.921875	-259.179687
430746.674753	0.932474	10.257214	0.444491
430747.751287	0.705696	205.078125	79.003906
430747.753289	0.930486	205.078125	79.003906
430747.755287	0.932872	205.078125	79.003906
430747.757287	0.930776	10.238541	0.160996
430748.766241	0.550747	189.257812	-275.195312
430748.768243	0.875396	189.257812	-275.195312
430748.770241	0.934446	189.257812	-275.195312
430748.772242	0.931658	10.248237	0.319072
430749.846774	0.404392	198.632812	84.472656
430749.850772	0.934501	198.632812	84.472656
430749.852775	0.931976	198.632812	84.472656
430749.854775	0.930303	10.233330	0.152181
430750.864793	0.797860	140.429687	-292.089844
430750.866796	0.935059	140.429687	-292.089844
430750.868796	0.931874	10.250611	0.229373
430751.911773	0.515615	229.882812	85.156250
430751.913776	0.853034	229.882812	85.156250
430751.915775	0.933822	229.882812	85.156250
430751.917776	0.930834	10.239170	0.482724
430752.927784	0.552029	220.117187	-305.078125
430752.929788	0.875519	220.117187	-305.078125
430752.931786	0.933296	220.117187	-305.078125
430752.933786	0.930535	10.235882	0.625042
430754.009807	0.673842	204.199219	97.167969
430754.011810	0.923541	204.199219	97.167969
430754.013809	0.931850	204.199219	97.167969
430754.015809	0.929843	10.228278	0.433148
430755.025862	0.714954	210.937500	-318.945312
430755.027868	0.931495	210.937500	-318.945312
430755.029867	0.931842	210.937500	-318.945312
430755.031867	0.929967	10.229634	0.551496
430756.106428	0.578523	187.792969	108.007812
430756.108430	0.890085	187.792969	108.007812
430756.110429	0.933757	187.792969	108.007812
430756.112429	0.931148	10.242626	0.334328
430757.124468	0.908524	201.269531	-329.687500
430757.126470	0.933332	201.269531	-329.687500
430757.128469	0.930940	10.240339	0.441949
430758.204528	0.750393	202.148437	110.449219
430758.206530	0.934550	202.148437	110.449219
430758.208528	0.932567	10.258242	0.274694
430759.219476	0.594223	175.097656	-339.941406
430759.221479	0.896994	175.097656	-339.941406
430759.223479	0.932711	175.097656	-339.941406
430759.225479	0.930316	10.233472	0.385558
430760.300046	0.456186	182.714844	117.187500
430760.302048	0.809392	182.714844	117.187500
430760.304048	0.936174	182.714844	117.187500
430760.306049	0.932901	10.261910	0.226871
430761.316620	0.594342	143.554687	-346.289062
430761.318622	0.897400	143.554687	-346.289062
430761.320623	0.933511	143.554687	-346.289062
430761.322623	0.931093	10.242023	0.313050
430762.399187	0.806607	173.437500	119.335937
430762.401188	0.935067	173.437500	119.335937
430762.403191	0.931913	10.251046	0.163397
430763.413765	0.591721	103.613281	-346.093750
430763.415769	0.896036	103.613281	-346.093750
430763.417770	0.932824	103.613281	-346.093750
430763.419769	0.930319	10.233507	0.245188
430764.465821	0.934325	196.777344	116.210937
430764.467823	0.931278	10.244061	0.480959
430765.509857	0.399810	54.394531	-337.792969
430765.511858	0.760063	54.394531	-337.792969
430765.513858	0.935290	54.394531	-337.792969
430765.515858	0.932887	10.261760	0.213176
430766.561891	0.920726	192.871094	113.671875
430766.563893	0.932255	192.871094	113.671875
430766.565895	0.930017	10.230192	0.439074
430767.573933	0.341652	183.496094	-332.714844
430767.575935	0.705034	183.496094	-332.714844
430767.577937	0.930006	183.496094	-332.714844
430767.579935	0.932334	183.496094	-332.714844
430767.581937	0.930276	10.233037	0.581666
430768.657946	0.817002	211.816406	104.296875
430768.659946	0.935051	211.816406	104.296875
430768.661947	0.931735	10.249086	0.367360
430769.672514	0.601925	164.062500	-322.851562
430769.674518	0.900618	164.062500	-322.851562
430769.676517	0.933204	164.062500	-322.851562
430769.678516	0.930694	10.237638	0.446718
430770.754541	0.724750	213.476562	96.679687
430770.756542	0.932434	213.476562	96.679687
430770.758542	0.932204	10.254245	0.633875
